Wavenumber,Intensity
650.4205,0.259295
652.2841,0.258860
654.1478,0.255008
656.0115,0.252908
657.8751,0.252421
659.7388,0.249817
661.6025,0.246739
663.4661,0.243813
665.3298,0.238885
667.1935,0.238287
669.0571,0.245364
670.9208,0.242280
672.7845,0.241021
674.6481,0.241493
676.5118,0.238918
678.3755,0.235065
680.2392,0.232933
682.1028,0.232691
683.9665,0.231004
685.8302,0.229449
687.6938,0.228286
689.5575,0.226054
691.4212,0.224465
693.2848,0.222849
695.1485,0.221691
697.0122,0.222661
698.8758,0.222197
700.7395,0.219375
702.6032,0.217110
704.4669,0.215806
706.3305,0.214248
708.1942,0.212714
710.0579,0.210759
711.9215,0.207724
713.7852,0.205547
715.6489,0.205208
717.5125,0.203541
719.3762,0.200681
721.2399,0.198744
723.1035,0.197913
724.9672,0.196212
726.8309,0.194301
728.6945,0.192852
730.5582,0.190639
732.4219,0.188985
734.2856,0.188497
736.1492,0.187274
738.0129,0.186004
739.8766,0.185075
741.7402,0.184047
743.6039,0.182703
745.4676,0.181759
747.3312,0.181155
749.1949,0.180218
751.0586,0.179186
752.9222,0.178051
754.7859,0.176777
756.6496,0.175611
758.5132,0.174395
760.3769,0.173864
762.2406,0.173391
764.1043,0.172468
765.9679,0.171909
767.8316,0.171369
769.6953,0.169656
771.5589,0.168159
773.4226,0.166993
775.2863,0.165943
777.1499,0.164883
779.0136,0.163761
780.8773,0.162235
782.7409,0.160882
784.6046,0.159151
786.4683,0.156519
788.3320,0.153726
790.1956,0.151488
792.0593,0.149489
793.9230,0.147602
795.7866,0.145689
797.6503,0.143973
799.5140,0.142778
801.3776,0.141962
803.2413,0.141437
805.1050,0.141008
806.9686,0.140091
808.8323,0.139446
810.6960,0.139269
812.5596,0.139392
814.4233,0.139226
816.2870,0.138903
818.1507,0.138450
820.0143,0.137430
821.8780,0.135837
823.7417,0.134126
825.6053,0.132015
827.4690,0.129451
829.3327,0.127294
831.1963,0.125519
833.0600,0.124031
834.9237,0.122876
836.7873,0.121486
838.6510,0.120303
840.5147,0.119332
842.3784,0.118521
844.2420,0.117840
846.1057,0.117201
847.9694,0.116312
849.8330,0.115770
851.6967,0.115731
853.5604,0.115480
855.4240,0.114637
857.2877,0.113790
859.1514,0.112895
861.0150,0.112120
862.8787,0.111508
864.7424,0.110963
866.6060,0.110359
868.4697,0.109842
870.3334,0.109248
872.1971,0.108412
874.0607,0.107287
875.9244,0.106069
877.7881,0.104718
879.6517,0.103275
881.5154,0.101828
883.3791,0.100644
885.2427,0.099625
887.1064,0.098845
888.9701,0.098400
890.8337,0.098366
892.6974,0.098498
894.5611,0.098538
896.4247,0.098294
898.2884,0.097851
900.1521,0.097259
902.0158,0.096628
903.8794,0.096029
905.7431,0.095617
907.6068,0.095539
909.4704,0.095821
911.3341,0.096310
913.1978,0.097081
915.0614,0.098094
916.9251,0.098951
918.7888,0.099487
920.6524,0.099831
922.5161,0.099661
924.3798,0.099284
926.2435,0.098971
928.1071,0.098387
929.9708,0.097598
931.8345,0.096903
933.6981,0.096429
935.5618,0.096304
937.4255,0.096433
939.2891,0.096966
941.1528,0.098074
943.0165,0.099476
944.8801,0.100914
946.7438,0.102388
948.6075,0.103462
950.4711,0.104185
952.3348,0.105009
954.1985,0.106274
956.0622,0.108150
957.9258,0.111097
959.7895,0.115140
961.6532,0.120039
963.5168,0.125630
965.3805,0.131097
967.2442,0.135472
969.1078,0.138770
970.9715,0.141483
972.8352,0.144272
974.6988,0.147698
976.5625,0.152034
978.4262,0.157143
980.2899,0.162368
982.1535,0.167319
984.0172,0.172165
985.8809,0.176644
987.7445,0.180205
989.6082,0.182895
991.4719,0.184910
993.3355,0.186639
995.1992,0.188483
997.0629,0.190292
998.9265,0.192427
1000.7902,0.195141
1002.6539,0.198492
1004.5175,0.202706
1006.3812,0.208029
1008.2449,0.214248
1010.1086,0.221140
1011.9722,0.228617
1013.8359,0.236338
1015.6996,0.243869
1017.5632,0.250571
1019.4269,0.256040
1021.2906,0.260445
1023.1542,0.263704
1025.0179,0.266118
1026.8816,0.268350
1028.7452,0.270434
1030.6089,0.271743
1032.4726,0.271896
1034.3362,0.270705
1036.1999,0.268404
1038.0636,0.265240
1039.9273,0.261414
1041.7909,0.257173
1043.6546,0.253285
1045.5183,0.250144
1047.3819,0.247742
1049.2456,0.246447
1051.1093,0.246133
1052.9729,0.246014
1054.8366,0.245642
1056.7003,0.245136
1058.5639,0.244468
1060.4276,0.243542
1062.2913,0.242754
1064.1550,0.242264
1066.0186,0.242062
1067.8823,0.242242
1069.7460,0.242587
1071.6096,0.242606
1073.4733,0.241805
1075.3370,0.239879
1077.2006,0.236373
1079.0643,0.231278
1080.9280,0.224938
1082.7916,0.217497
1084.6553,0.209630
1086.5190,0.202083
1088.3826,0.195410
1090.2463,0.189908
1092.1100,0.185780
1093.9737,0.182897
1095.8373,0.180820
1097.7010,0.179130
1099.5647,0.177618
1101.4283,0.176218
1103.2920,0.174788
1105.1557,0.173270
1107.0193,0.171676
1108.8830,0.170072
1110.7467,0.168613
1112.6103,0.167174
1114.4740,0.165630
1116.3377,0.163829
1118.2014,0.161785
1120.0650,0.159620
1121.9287,0.157303
1123.7924,0.154791
1125.6560,0.152183
1127.5197,0.149497
1129.3834,0.146826
1131.2470,0.144217
1133.1107,0.141661
1134.9744,0.139261
1136.8380,0.137241
1138.7017,0.135711
1140.5654,0.134751
1142.4290,0.134211
1144.2927,0.133969
1146.1564,0.133811
1148.0201,0.133665
1149.8837,0.133159
1151.7474,0.132010
1153.6111,0.130372
1155.4747,0.128296
1157.3384,0.125880
1159.2021,0.123264
1161.0657,0.120539
1162.9294,0.117671
1164.7931,0.114655
1166.6567,0.111628
1168.5204,0.108378
1170.3841,0.104908
1172.2477,0.101146
1174.1114,0.097327
1175.9751,0.093831
1177.8388,0.090816
1179.7024,0.088529
1181.5661,0.087048
1183.4298,0.086120
1185.2934,0.085784
1187.1571,0.085909
1189.0208,0.086381
1190.8844,0.087126
1192.7481,0.088065
1194.6118,0.089325
1196.4754,0.090851
1198.3391,0.092463
1200.2028,0.094081
1202.0665,0.095554
1203.9301,0.096891
1205.7938,0.098031
1207.6575,0.098900
1209.5211,0.099693
1211.3848,0.100496
1213.2485,0.101479
1215.1121,0.102776
1216.9758,0.104440
1218.8395,0.106436
1220.7031,0.108670
1222.5668,0.111117
1224.4305,0.113579
1226.2941,0.115867
1228.1578,0.118003
1230.0215,0.119885
1231.8852,0.121444
1233.7488,0.122896
1235.6125,0.124126
1237.4762,0.125099
1239.3398,0.125745
1241.2035,0.126121
1243.0672,0.126164
1244.9308,0.125790
1246.7945,0.125130
1248.6582,0.124358
1250.5218,0.123583
1252.3855,0.122808
1254.2492,0.121954
1256.1129,0.121060
1257.9765,0.120154
1259.8402,0.119288
1261.7039,0.118499
1263.5675,0.117750
1265.4312,0.116920
1267.2949,0.116143
1269.1585,0.115396
1271.0222,0.114609
1272.8859,0.113860
1274.7495,0.113203
1276.6132,0.112687
1278.4769,0.112369
1280.3405,0.112123
1282.2042,0.111849
1284.0679,0.111662
1285.9316,0.111577
1287.7952,0.111735
1289.6589,0.112014
1291.5226,0.112436
1293.3862,0.113205
1295.2499,0.114373
1297.1136,0.115745
1298.9772,0.117195
1300.8409,0.118724
1302.7046,0.120249
1304.5682,0.121715
1306.4319,0.123087
1308.2956,0.124390
1310.1592,0.125570
1312.0229,0.126832
1313.8866,0.127763
1315.7503,0.128287
1317.6139,0.128913
1319.4776,0.129295
1321.3413,0.129130
1323.2049,0.128907
1325.0686,0.128813
1326.9323,0.128960
1328.7959,0.129401
1330.6596,0.129836
1332.5233,0.130181
1334.3869,0.130414
1336.2506,0.131085
1338.1143,0.132666
1339.9780,0.134237
1341.8416,0.134116
1343.7053,0.133711
1345.5690,0.133737
1347.4326,0.133683
1349.2963,0.133647
1351.1600,0.133503
1353.0236,0.133496
1354.8873,0.133661
1356.7510,0.133391
1358.6146,0.133183
1360.4783,0.134389
1362.3420,0.137155
1364.2056,0.138626
1366.0693,0.139104
1367.9330,0.140794
1369.7967,0.142103
1371.6603,0.143288
1373.5240,0.146341
1375.3877,0.148623
1377.2513,0.149186
1379.1150,0.150096
1380.9787,0.150687
1382.8423,0.150958
1384.7060,0.151668
1386.5697,0.154497
1388.4333,0.156165
1390.2970,0.155062
1392.1607,0.155269
1394.0244,0.158415
1395.8880,0.160610
1397.7517,0.161612
1399.6154,0.163019
1401.4790,0.161972
1403.3427,0.162278
1405.2064,0.163400
1407.0700,0.162421
1408.9337,0.161211
1410.7974,0.160461
1412.6610,0.158484
1414.5247,0.155747
1416.3884,0.154073
1418.2520,0.155351
1420.1157,0.153873
1421.9794,0.149721
1423.8431,0.148023
1425.7067,0.145845
1427.5704,0.144389
1429.4341,0.144904
1431.2977,0.144431
1433.1614,0.143300
1435.0251,0.146026
1436.8887,0.151786
1438.7524,0.151585
1440.6161,0.150992
1442.4797,0.151896
1444.3434,0.152664
1446.2071,0.154409
1448.0707,0.156566
1449.9344,0.155890
1451.7981,0.153579
1453.6618,0.151514
1455.5254,0.153061
1457.3891,0.155814
1459.2528,0.149317
1461.1164,0.142700
1462.9801,0.139802
1464.8438,0.138656
1466.7074,0.133902
1468.5711,0.128274
1470.4348,0.125022
1472.2984,0.124121
1474.1621,0.120450
1476.0258,0.116331
1477.8895,0.112262
1479.7531,0.109117
1481.6168,0.107164
1483.4805,0.105052
1485.3441,0.103970
1487.2078,0.105578
1489.0715,0.109343
1490.9351,0.111475
1492.7988,0.110440
1494.6625,0.112810
1496.5261,0.119818
1498.3898,0.124711
1500.2535,0.125998
1502.1171,0.126062
1503.9808,0.129033
1505.8445,0.143345
1507.7082,0.158681
1509.5718,0.159092
1511.4355,0.161516
1513.2992,0.166119
1515.1628,0.171597
1517.0265,0.177403
1518.8902,0.180270
1520.7538,0.187039
1522.6175,0.192604
1524.4812,0.194354
1526.3448,0.199088
1528.2085,0.201621
1530.0722,0.202767
1531.9359,0.207286
1533.7995,0.212871
1535.6632,0.210393
1537.5269,0.211546
1539.3905,0.222654
1541.2542,0.229425
1543.1179,0.227589
1544.9815,0.226263
1546.8452,0.223213
1548.7089,0.222111
1550.5725,0.220433
1552.4362,0.217297
1554.2999,0.213913
1556.1635,0.211832
1558.0272,0.219971
1559.8909,0.221259
1561.7546,0.209143
1563.6182,0.203868
1565.4819,0.200653
1567.3456,0.198770
1569.2092,0.199145
1571.0729,0.195161
1572.9366,0.190746
1574.8002,0.192723
1576.6639,0.195265
1578.5276,0.191451
1580.3912,0.189222
1582.2549,0.189116
1584.1186,0.189331
1585.9822,0.189925
1587.8459,0.190918
1589.7096,0.192275
1591.5733,0.193440
1593.4369,0.195234
1595.3006,0.197437
1597.1643,0.199213
1599.0279,0.201102
1600.8916,0.203829
1602.7553,0.206773
1604.6189,0.209864
1606.4826,0.213965
1608.3463,0.219458
1610.2099,0.224123
1612.0736,0.227438
1613.9373,0.231817
1615.8010,0.241505
1617.6646,0.248138
1619.5283,0.248394
1621.3920,0.252454
1623.2556,0.259186
1625.1193,0.261717
1626.9830,0.263817
1628.8466,0.264440
1630.7103,0.262241
1632.5740,0.261403
1634.4376,0.265428
1636.3013,0.265695
1638.1650,0.259723
1640.0286,0.254836
1641.8923,0.250593
1643.7560,0.247511
1645.6197,0.247440
1647.4833,0.242574
1649.3470,0.234668
1651.2107,0.234279
1653.0743,0.237824
1654.9380,0.226561
1656.8017,0.217921
1658.6653,0.211766
1660.5290,0.206623
1662.3927,0.201016
1664.2563,0.192858
1666.1200,0.185371
1667.9837,0.180259
1669.8474,0.173335
1671.7110,0.164690
1673.5747,0.157922
1675.4384,0.150598
1677.3020,0.141194
1679.1657,0.133536
1681.0294,0.126141
1682.8930,0.120922
1684.7567,0.112514
1686.6204,0.102896
1688.4840,0.095593
1690.3477,0.087709
1692.2114,0.080051
1694.0750,0.073910
1695.9387,0.066849
1697.8024,0.060073
1699.6661,0.055007
1701.5297,0.049035
1703.3934,0.044622
1705.2571,0.041108
1707.1207,0.037382
1708.9844,0.034357
1710.8481,0.031718
1712.7117,0.029649
1714.5754,0.027932
1716.4391,0.026547
1718.3027,0.024896
1720.1664,0.023441
1722.0301,0.022173
1723.8937,0.021108
1725.7574,0.019932
1727.6211,0.019056
1729.4848,0.018225
1731.3484,0.017438
1733.2121,0.016734
1735.0758,0.016481
1736.9394,0.015874
1738.8031,0.015571
1740.6668,0.015354
1742.5304,0.014940
1744.3941,0.014473
1746.2578,0.014116
1748.1214,0.013532
1749.9851,0.012410
1751.8488,0.011005
1753.7125,0.010026
1755.5761,0.008982
1757.4398,0.008373
1759.3035,0.007752
1761.1671,0.006942
1763.0308,0.006406
1764.8945,0.006223
1766.7581,0.005953
1768.6218,0.005793
1770.4855,0.005318
1772.3491,0.005127
1774.2128,0.004911
1776.0765,0.004485
1777.9401,0.004247
1779.8038,0.004138
1781.6675,0.004040
1783.5312,0.003925
1785.3948,0.003832
1787.2585,0.003796
1789.1222,0.003620
1790.9858,0.003472
1792.8495,0.003197
1794.7132,0.002967
1796.5768,0.002961
1798.4405,0.003038
1800.3042,0.002929
1802.1678,0.002888
1804.0315,0.002745
1805.8952,0.002409
1807.7589,0.002206
1809.6225,0.002292
1811.4862,0.002287
1813.3499,0.002156
1815.2135,0.001724
1817.0772,0.001456
1818.9409,0.001810
1820.8045,0.002138
1822.6682,0.002014
1824.5319,0.001870
1826.3955,0.001862
1828.2592,0.001829
1830.1229,0.001815
1831.9865,0.001802
1833.8502,0.001562
1835.7139,0.001553
1837.5776,0.001682
1839.4412,0.001818
1841.3049,0.001660
1843.1686,0.001449
1845.0322,0.001688
1846.8959,0.001826
1848.7596,0.001671
1850.6232,0.001508
1852.4869,0.001274
1854.3506,0.001227
1856.2142,0.001378
1858.0779,0.001377
1859.9416,0.001115
1861.8052,0.001425
1863.6689,0.001878
1865.5326,0.001871
1867.3963,0.001505
1869.2599,0.001637
1871.1236,0.001748
1872.9873,0.001636
1874.8509,0.001671
1876.7146,0.001764
1878.5783,0.001358
1880.4419,0.001151
1882.3056,0.001665
1884.1693,0.002206
1886.0329,0.002226
1887.8966,0.002043
1889.7603,0.001768
1891.6240,0.001922
1893.4876,0.002362
1895.3513,0.002518
1897.2150,0.002265
1899.0786,0.001823
1900.9423,0.001775
1902.8060,0.002032
1904.6696,0.002041
1906.5333,0.001839
1908.3970,0.001710
1910.2606,0.001782
1912.1243,0.002101
1913.9880,0.002710
1915.8516,0.002345
1917.7153,0.001629
1919.5790,0.001947
1921.4427,0.002474
1923.3063,0.002698
1925.1700,0.002640
1927.0337,0.002618
1928.8973,0.003159
1930.7610,0.003485
1932.6247,0.003053
1934.4883,0.002480
1936.3520,0.002295
1938.2157,0.002146
1940.0793,0.002433
1941.9430,0.003235
1943.8067,0.003003
1945.6704,0.002653
1947.5340,0.003421
1949.3977,0.003413
1951.2614,0.002567
1953.1250,0.002724
1954.9887,0.003601
1956.8524,0.003517
1958.7160,0.003757
1960.5797,0.004891
1962.4434,0.004647
1964.3070,0.003416
1966.1707,0.003535
1968.0344,0.003049
1969.8980,0.002176
1971.7617,0.003685
1973.6254,0.005783
1975.4891,0.007291
1977.3527,0.007852
1979.2164,0.007336
1981.0801,0.007476
1982.9437,0.007553
1984.8074,0.007513
1986.6711,0.007451
1988.5347,0.006696
1990.3984,0.005836
1992.2621,0.005774
1994.1257,0.006348
1995.9894,0.006831
1997.8531,0.007338
1999.7167,0.007544
2001.5804,0.006889
2003.4441,0.006401
2005.3078,0.006559
2007.1714,0.006473
2009.0351,0.006759
2010.8988,0.007954
2012.7624,0.008044
2014.6261,0.007492
2016.4898,0.007780
2018.3534,0.008252
2020.2171,0.008588
2022.0808,0.008604
2023.9444,0.008740
2025.8081,0.009370
2027.6718,0.010105
2029.5355,0.011375
2031.3991,0.012141
2033.2628,0.011651
2035.1265,0.012614
2036.9901,0.014173
2038.8538,0.013866
2040.7175,0.013136
2042.5811,0.013771
2044.4448,0.014947
2046.3085,0.016744
2048.1721,0.018374
2050.0358,0.018280
2051.8995,0.018156
2053.7631,0.018819
2055.6268,0.019548
2057.4905,0.019405
2059.3542,0.018743
2061.2178,0.018888
2063.0815,0.019180
2064.9452,0.018544
2066.8088,0.018152
2068.6725,0.018151
2070.5362,0.017556
2072.3998,0.017529
2074.2635,0.017211
2076.1272,0.016355
2077.9908,0.016013
2079.8545,0.015285
2081.7182,0.014666
2083.5819,0.014244
2085.4455,0.013356
2087.3092,0.012715
2089.1729,0.012300
2091.0365,0.012028
2092.9002,0.011778
2094.7639,0.011273
2096.6275,0.011170
2098.4912,0.011320
2100.3549,0.011154
2102.2185,0.011242
2104.0822,0.011691
2105.9459,0.011843
2107.8095,0.011505
2109.6732,0.011470
2111.5369,0.011333
2113.4006,0.011007
2115.2642,0.010935
2117.1279,0.010849
2118.9916,0.010929
2120.8552,0.010757
2122.7189,0.010810
2124.5826,0.010946
2126.4462,0.009876
2128.3099,0.008986
2130.1736,0.009282
2132.0372,0.009518
2133.9009,0.009306
2135.7646,0.009337
2137.6282,0.009597
2139.4919,0.009701
2141.3556,0.009430
2143.2193,0.010068
2145.0829,0.010848
2146.9466,0.010810
2148.8103,0.011229
2150.6739,0.011986
2152.5376,0.011615
2154.4013,0.010723
2156.2649,0.009607
2158.1286,0.010633
2159.9923,0.013671
2161.8559,0.014034
2163.7196,0.013271
2165.5833,0.014001
2167.4470,0.013384
2169.3106,0.011975
2171.1743,0.012178
2173.0380,0.013467
2174.9016,0.013651
2176.7653,0.012500
2178.6290,0.011938
2180.4926,0.012440
2182.3563,0.012812
2184.2200,0.013031
2186.0836,0.012667
2187.9473,0.012672
2189.8110,0.012526
2191.6746,0.012081
2193.5383,0.012239
2195.4020,0.012581
2197.2657,0.011576
2199.1293,0.010212
2200.9930,0.011474
2202.8567,0.013565
2204.7203,0.012746
2206.5840,0.011276
2208.4477,0.010704
2210.3113,0.011510
2212.1750,0.012387
2214.0387,0.012612
2215.9023,0.012460
2217.7660,0.011294
2219.6297,0.010897
2221.4934,0.011743
2223.3570,0.012049
2225.2207,0.012093
2227.0844,0.012416
2228.9480,0.012280
2230.8117,0.011426
2232.6754,0.010839
2234.5390,0.010679
2236.4027,0.010932
2238.2664,0.011159
2240.1300,0.010930
2241.9937,0.010767
2243.8574,0.010600
2245.7210,0.010250
2247.5847,0.010219
2249.4484,0.010495
2251.3121,0.010632
2253.1757,0.010019
2255.0394,0.009773
2256.9031,0.010286
2258.7667,0.010094
2260.6304,0.009626
2262.4941,0.009907
2264.3577,0.010400
2266.2214,0.010765
2268.0851,0.010658
2269.9487,0.009987
2271.8124,0.009974
2273.6761,0.010251
2275.5397,0.010092
2277.4034,0.009991
2279.2671,0.010003
2281.1308,0.010239
2282.9944,0.010430
2284.8581,0.010365
2286.7218,0.009955
2288.5854,0.009512
2290.4491,0.009410
2292.3128,0.009486
2294.1764,0.009351
2296.0401,0.009416
2297.9038,0.009200
2299.7674,0.008784
2301.6311,0.008449
2303.4948,0.008602
2305.3585,0.008829
2307.2221,0.008748
2309.0858,0.008900
2310.9495,0.009065
2312.8131,0.009144
2314.6768,0.009134
2316.5405,0.008803
2318.4041,0.008694
2320.2678,0.009001
2322.1315,0.009457
2323.9951,0.009278
2325.8588,0.008818
2327.7225,0.008228
2329.5861,0.008204
2331.4498,0.008079
2333.3135,0.007792
2335.1772,0.008073
2337.0408,0.008080
2338.9045,0.007936
2340.7682,0.008554
2342.6318,0.008985
2344.4955,0.008820
2346.3592,0.008519
2348.2228,0.007769
2350.0865,0.006811
2351.9502,0.006545
2353.8138,0.007069
2355.6775,0.007498
2357.5412,0.008149
2359.4049,0.008707
2361.2685,0.008588
2363.1322,0.008716
2364.9959,0.009659
2366.8595,0.009941
2368.7232,0.009650
2370.5869,0.009143
2372.4505,0.008612
2374.3142,0.008574
2376.1779,0.008553
2378.0415,0.008188
2379.9052,0.007727
2381.7689,0.007609
2383.6325,0.007816
2385.4962,0.007959
2387.3599,0.007773
2389.2236,0.007649
2391.0872,0.007732
2392.9509,0.007688
2394.8146,0.007557
2396.6782,0.007672
2398.5419,0.007574
2400.4056,0.007707
2402.2692,0.008235
2404.1329,0.008332
2405.9966,0.008199
2407.8602,0.008209
2409.7239,0.008290
2411.5876,0.008526
2413.4512,0.008777
2415.3149,0.008883
2417.1786,0.008770
2419.0423,0.008498
2420.9059,0.008401
2422.7696,0.008445
2424.6333,0.008494
2426.4969,0.008671
2428.3606,0.008901
2430.2243,0.009288
2432.0879,0.009615
2433.9516,0.009543
2435.8153,0.009383
2437.6789,0.009190
2439.5426,0.009129
2441.4063,0.009719
2443.2700,0.009878
2445.1336,0.009795
2446.9973,0.009952
2448.8610,0.010289
2450.7246,0.010210
2452.5883,0.010022
2454.4520,0.009938
2456.3156,0.009938
2458.1793,0.010157
2460.0430,0.010281
2461.9066,0.010508
2463.7703,0.010658
2465.6340,0.010682
2467.4976,0.010791
2469.3613,0.010515
2471.2250,0.010467
2473.0887,0.010840
2474.9523,0.011294
2476.8160,0.011355
2478.6797,0.011062
2480.5433,0.011032
2482.4070,0.011288
2484.2707,0.011244
2486.1343,0.011294
2487.9980,0.011449
2489.8617,0.011605
2491.7253,0.011743
2493.5890,0.011707
2495.4527,0.011667
2497.3164,0.011906
2499.1800,0.012003
2501.0437,0.011794
2502.9074,0.011954
2504.7710,0.012626
2506.6347,0.012728
2508.4984,0.012281
2510.3620,0.012010
2512.2257,0.012181
2514.0894,0.012603
2515.9530,0.013061
2517.8167,0.013230
2519.6804,0.013227
2521.5440,0.013227
2523.4077,0.013477
2525.2714,0.013681
2527.1351,0.013757
2528.9987,0.013518
2530.8624,0.013283
2532.7261,0.013645
2534.5897,0.013945
2536.4534,0.013853
2538.3171,0.013895
2540.1807,0.013858
2542.0444,0.014015
2543.9081,0.014265
2545.7717,0.014458
2547.6354,0.014271
2549.4991,0.014522
2551.3627,0.014825
2553.2264,0.014824
2555.0901,0.015001
2556.9538,0.015073
2558.8174,0.014890
2560.6811,0.014889
2562.5448,0.014989
2564.4084,0.015182
2566.2721,0.015415
2568.1358,0.015808
2569.9994,0.015928
2571.8631,0.016026
2573.7268,0.016159
2575.5904,0.016073
2577.4541,0.016236
2579.3178,0.016876
2581.1815,0.017044
2583.0451,0.017022
2584.9088,0.017284
2586.7725,0.017554
2588.6361,0.017686
2590.4998,0.017606
2592.3635,0.017826
2594.2271,0.018118
2596.0908,0.018221
2597.9545,0.018235
2599.8181,0.018249
2601.6818,0.018731
2603.5455,0.019165
2605.4091,0.019298
2607.2728,0.019732
2609.1365,0.019914
2611.0002,0.019974
2612.8638,0.020346
2614.7275,0.020492
2616.5912,0.020600
2618.4548,0.020699
2620.3185,0.020923
2622.1822,0.021204
2624.0458,0.021306
2625.9095,0.021469
2627.7732,0.021922
2629.6368,0.022045
2631.5005,0.022404
2633.3642,0.022743
2635.2279,0.022795
2637.0915,0.022966
2638.9552,0.023154
2640.8189,0.023298
2642.6825,0.023776
2644.5462,0.024278
2646.4099,0.024516
2648.2735,0.024525
2650.1372,0.024669
2652.0009,0.025172
2653.8645,0.025511
2655.7282,0.025488
2657.5919,0.025611
2659.4555,0.025813
2661.3192,0.025951
2663.1829,0.026054
2665.0466,0.026316
2666.9102,0.026571
2668.7739,0.026673
2670.6376,0.026912
2672.5012,0.027265
2674.3649,0.027464
2676.2286,0.027713
2678.0922,0.028075
2679.9559,0.028272
2681.8196,0.028312
2683.6832,0.028501
2685.5469,0.028768
2687.4106,0.028871
2689.2742,0.029107
2691.1379,0.029657
2693.0016,0.030111
2694.8653,0.030278
2696.7289,0.030414
2698.5926,0.030647
2700.4563,0.030800
2702.3199,0.030985
2704.1836,0.031117
2706.0473,0.031342
2707.9109,0.031637
2709.7746,0.031739
2711.6383,0.031988
2713.5019,0.032390
2715.3656,0.032682
2717.2293,0.032955
2719.0930,0.033111
2720.9566,0.033385
2722.8203,0.033643
2724.6840,0.033909
2726.5476,0.034152
2728.4113,0.034363
2730.2750,0.034540
2732.1386,0.034680
2734.0023,0.035048
2735.8660,0.035509
2737.7296,0.035795
2739.5933,0.035939
2741.4570,0.036143
2743.3206,0.036722
2745.1843,0.036804
2747.0480,0.036871
2748.9117,0.037306
2750.7753,0.037693
2752.6390,0.037830
2754.5027,0.037920
2756.3663,0.038171
2758.2300,0.038588
2760.0937,0.039047
2761.9573,0.039489
2763.8210,0.039583
2765.6847,0.039710
2767.5483,0.039985
2769.4120,0.040430
2771.2757,0.040769
2773.1394,0.041416
2775.0030,0.041863
2776.8667,0.042047
2778.7304,0.042217
2780.5940,0.042751
2782.4577,0.043456
2784.3214,0.044005
2786.1850,0.044325
2788.0487,0.044512
2789.9124,0.044752
2791.7760,0.045130
2793.6397,0.045592
2795.5034,0.046060
2797.3670,0.046515
2799.2307,0.046950
2801.0944,0.047410
2802.9581,0.047979
2804.8217,0.048564
2806.6854,0.049003
2808.5491,0.049366
2810.4127,0.049926
2812.2764,0.050308
2814.1401,0.050722
2816.0037,0.051340
2817.8674,0.051921
2819.7311,0.052214
2821.5947,0.052695
2823.4584,0.053165
2825.3221,0.053712
2827.1857,0.054527
2829.0494,0.055261
2830.9131,0.055930
2832.7768,0.056622
2834.6404,0.057356
2836.5041,0.058035
2838.3678,0.058692
2840.2314,0.059725
2842.0951,0.060619
2843.9588,0.061609
2845.8224,0.063099
2847.6861,0.064614
2849.5498,0.065954
2851.4134,0.067418
2853.2771,0.068379
2855.1408,0.068928
2857.0045,0.069149
2858.8681,0.069316
2860.7318,0.069676
2862.5955,0.070230
2864.4591,0.070793
2866.3228,0.071904
2868.1865,0.072967
2870.0501,0.073697
2871.9138,0.074511
2873.7775,0.075125
2875.6411,0.075365
2877.5048,0.075575
2879.3685,0.075605
2881.2321,0.075706
2883.0958,0.075967
2884.9595,0.076085
2886.8232,0.076318
2888.6868,0.076730
2890.5505,0.077161
2892.4142,0.077745
2894.2778,0.078080
2896.1415,0.078342
2898.0052,0.078820
2899.8688,0.079630
2901.7325,0.080259
2903.5962,0.081019
2905.4598,0.081989
2907.3235,0.082787
2909.1872,0.083713
2911.0509,0.085149
2912.9145,0.086404
2914.7782,0.087652
2916.6419,0.089103
2918.5055,0.090618
2920.3692,0.091945
2922.2329,0.093352
2924.0965,0.094170
2925.9602,0.094575
2927.8239,0.094761
2929.6875,0.095075
2931.5512,0.094928
2933.4149,0.094747
2935.2785,0.094392
2937.1422,0.093844
2939.0059,0.093298
2940.8696,0.092608
2942.7332,0.091706
2944.5969,0.091254
2946.4606,0.090636
2948.3242,0.090133
2950.1879,0.090070
2952.0516,0.090341
2953.9152,0.090518
2955.7789,0.090572
2957.6426,0.090444
2959.5062,0.090035
2961.3699,0.089659
2963.2336,0.089609
2965.0972,0.088987
2966.9609,0.088621
2968.8246,0.088362
2970.6883,0.087956
2972.5519,0.087649
2974.4156,0.087390
2976.2793,0.087106
2978.1429,0.086793
2980.0066,0.086069
2981.8703,0.085739
2983.7339,0.085293
2985.5976,0.084791
2987.4613,0.084290
2989.3249,0.084046
2991.1886,0.084043
2993.0523,0.084238
2994.9160,0.084116
2996.7796,0.084291
2998.6433,0.084303
3000.5070,0.084493
3002.3706,0.085083
3004.2343,0.085816
3006.0980,0.086327
3007.9616,0.086696
3009.8253,0.087184
3011.6890,0.088093
3013.5526,0.088851
3015.4163,0.089410
3017.2800,0.089898
3019.1436,0.090777
3021.0073,0.091635
3022.8710,0.092539
3024.7347,0.093530
3026.5983,0.094715
3028.4620,0.095796
3030.3257,0.096897
3032.1893,0.098118
3034.0530,0.099343
3035.9167,0.100003
3037.7803,0.100850
3039.6440,0.102005
3041.5077,0.103234
3043.3713,0.104262
3045.2350,0.105360
3047.0987,0.106316
3048.9624,0.107276
3050.8260,0.108374
3052.6897,0.109660
3054.5534,0.110683
3056.4170,0.111575
3058.2807,0.112523
3060.1444,0.113734
3062.0080,0.114516
3063.8717,0.115161
3065.7354,0.115987
3067.5990,0.116724
3069.4627,0.117276
3071.3264,0.118299
3073.1900,0.119073
3075.0537,0.119731
3076.9174,0.120357
3078.7811,0.121001
3080.6447,0.121493
3082.5084,0.122301
3084.3721,0.122980
3086.2357,0.123277
3088.0994,0.123533
3089.9631,0.124071
3091.8267,0.124472
3093.6904,0.125302
3095.5541,0.126284
3097.4177,0.126967
3099.2814,0.126892
3101.1451,0.127087
3103.0087,0.127869
3104.8724,0.128838
3106.7361,0.129922
3108.5998,0.130747
3110.4634,0.130856
3112.3271,0.131666
3114.1908,0.132688
3116.0544,0.133593
3117.9181,0.134392
3119.7818,0.135456
3121.6454,0.136392
3123.5091,0.137384
3125.3728,0.138159
3127.2364,0.139154
3129.1001,0.140333
3130.9638,0.141618
3132.8275,0.142628
3134.6911,0.143960
3136.5548,0.145218
3138.4185,0.146102
3140.2821,0.146958
3142.1458,0.148087
3144.0095,0.148944
3145.8731,0.150193
3147.7368,0.151805
3149.6005,0.153549
3151.4641,0.154714
3153.3278,0.155718
3155.1915,0.156651
3157.0551,0.157915
3158.9188,0.159036
3160.7825,0.160579
3162.6462,0.162232
3164.5098,0.163593
3166.3735,0.164792
3168.2372,0.165935
3170.1008,0.166883
3171.9645,0.168363
3173.8282,0.169589
3175.6918,0.170470
3177.5555,0.171509
3179.4192,0.172711
3181.2828,0.173559
3183.1465,0.174855
3185.0102,0.176272
3186.8739,0.177255
3188.7375,0.177833
3190.6012,0.178824
3192.4649,0.179616
3194.3285,0.180893
3196.1922,0.182271
3198.0559,0.183241
3199.9195,0.183741
3201.7832,0.184392
3203.6469,0.184925
3205.5105,0.185463
3207.3742,0.185806
3209.2379,0.186191
3211.1015,0.186719
3212.9652,0.187720
3214.8289,0.188268
3216.6926,0.188476
3218.5562,0.189122
3220.4199,0.189957
3222.2836,0.189815
3224.1472,0.190183
3226.0109,0.190743
3227.8746,0.190701
3229.7382,0.190736
3231.6019,0.191689
3233.4656,0.192084
3235.3292,0.192438
3237.1929,0.192990
3239.0566,0.193378
3240.9202,0.193831
3242.7839,0.194609
3244.6476,0.195168
3246.5113,0.195901
3248.3749,0.196034
3250.2386,0.196380
3252.1023,0.196815
3253.9659,0.196806
3255.8296,0.196699
3257.6933,0.197520
3259.5569,0.197903
3261.4206,0.198051
3263.2843,0.198417
3265.1479,0.198368
3267.0116,0.198069
3268.8753,0.198206
3270.7390,0.198247
3272.6026,0.198527
3274.4663,0.198159
3276.3300,0.197745
3278.1936,0.197924
3280.0573,0.197939
3281.9210,0.197473
3283.7846,0.197444
3285.6483,0.197341
3287.5120,0.197123
3289.3756,0.196753
3291.2393,0.196409
3293.1030,0.195644
3294.9666,0.194775
3296.8303,0.194306
3298.6940,0.194092
3300.5577,0.193735
3302.4213,0.193216
3304.2850,0.192399
3306.1487,0.192027
3308.0123,0.191831
3309.8760,0.191381
3311.7397,0.190515
3313.6033,0.190066
3315.4670,0.189859
3317.3307,0.189755
3319.1943,0.189484
3321.0580,0.188814
3322.9217,0.188131
3324.7854,0.187767
3326.6490,0.187456
3328.5127,0.186777
3330.3764,0.186239
3332.2400,0.186397
3334.1037,0.185990
3335.9674,0.185635
3337.8310,0.185847
3339.6947,0.185596
3341.5584,0.184990
3343.4220,0.184712
3345.2857,0.184190
3347.1494,0.183461
3349.0130,0.182895
3350.8767,0.182469
3352.7404,0.181672
3354.6041,0.181147
3356.4677,0.181312
3358.3314,0.180667
3360.1951,0.179393
3362.0587,0.178683
3363.9224,0.177833
3365.7861,0.176775
3367.6497,0.176410
3369.5134,0.175981
3371.3771,0.175156
3373.2407,0.174716
3375.1044,0.174052
3376.9681,0.173151
3378.8317,0.172711
3380.6954,0.172194
3382.5591,0.171445
3384.4228,0.170337
3386.2864,0.169364
3388.1501,0.168732
3390.0138,0.167944
3391.8774,0.167526
3393.7411,0.167234
3395.6048,0.166028
3397.4684,0.164570
3399.3321,0.163899
3401.1958,0.163658
3403.0594,0.163064
3404.9231,0.162267
3406.7868,0.161461
3408.6505,0.160440
3410.5141,0.159433
3412.3778,0.158827
3414.2415,0.158013
3416.1051,0.157565
3417.9688,0.157092
3419.8325,0.156056
3421.6961,0.154726
3423.5598,0.153354
3425.4235,0.152481
3427.2871,0.152058
3429.1508,0.150724
3431.0145,0.149382
3432.8781,0.148655
3434.7418,0.147963
3436.6055,0.146962
3438.4692,0.145941
3440.3328,0.145287
3442.1965,0.144565
3444.0602,0.143255
3445.9238,0.142176
3447.7875,0.140970
3449.6512,0.139871
3451.5148,0.138888
3453.3785,0.137797
3455.2422,0.136719
3457.1058,0.135405
3458.9695,0.133746
3460.8332,0.132752
3462.6969,0.131882
3464.5605,0.130269
3466.4242,0.128479
3468.2879,0.127804
3470.1515,0.126882
3472.0152,0.125084
3473.8789,0.123415
3475.7425,0.122887
3477.6062,0.121663
3479.4699,0.119893
3481.3335,0.118873
3483.1972,0.117824
3485.0609,0.116060
3486.9245,0.114741
3488.7882,0.113410
3490.6519,0.112500
3492.5156,0.111396
3494.3792,0.109735
3496.2429,0.108311
3498.1066,0.106729
3499.9702,0.104469
3501.8339,0.102738
3503.6976,0.101634
3505.5612,0.100754
3507.4249,0.099135
3509.2886,0.098019
3511.1522,0.096932
3513.0159,0.095219
3514.8796,0.093907
3516.7432,0.092929
3518.6069,0.091407
3520.4706,0.089824
3522.3343,0.087976
3524.1979,0.087244
3526.0616,0.086738
3527.9253,0.085023
3529.7889,0.083628
3531.6526,0.082622
3533.5163,0.081339
3535.3799,0.079883
3537.2436,0.077832
3539.1073,0.076455
3540.9709,0.075335
3542.8346,0.074279
3544.6983,0.073317
3546.5620,0.071980
3548.4256,0.070327
3550.2893,0.069217
3552.1530,0.068187
3554.0166,0.067136
3555.8803,0.065801
3557.7440,0.064095
3559.6076,0.062426
3561.4713,0.060905
3563.3350,0.059830
3565.1986,0.059342
3567.0623,0.057540
3568.9260,0.055751
3570.7896,0.055100
3572.6533,0.053983
3574.5170,0.052139
3576.3807,0.051499
3578.2443,0.050390
3580.1080,0.048316
3581.9717,0.047016
3583.8353,0.045895
3585.6990,0.044831
3587.5627,0.044105
3589.4263,0.042662
3591.2900,0.041876
3593.1537,0.040680
3595.0173,0.039076
3596.8810,0.037941
3598.7447,0.036910
3600.6084,0.035710
3602.4720,0.034642
3604.3357,0.033296
3606.1994,0.031773
3608.0630,0.030539
3609.9267,0.029973
3611.7904,0.029049
3613.6540,0.027838
3615.5177,0.026804
3617.3814,0.025091
3619.2450,0.023628
3621.1087,0.023054
3622.9724,0.022241
3624.8360,0.021280
3626.6997,0.020107
3628.5634,0.018553
3630.4271,0.017630
3632.2907,0.017094
3634.1544,0.016205
3636.0181,0.015078
3637.8817,0.014012
3639.7454,0.012853
3641.6091,0.011815
3643.4727,0.011001
3645.3364,0.009791
3647.2001,0.008098
3649.0637,0.006737
3650.9274,0.006041
3652.7911,0.005757
3654.6547,0.005105
3656.5184,0.004118
3658.3821,0.003618
3660.2458,0.003105
3662.1094,0.002096
3663.9731,0.001383
3665.8368,0.000955
3667.7004,0.000177
3669.5641,-0.001036
3671.4278,-0.001654
3673.2914,-0.001976
3675.1551,-0.003162
3677.0188,-0.003700
3678.8824,-0.003106
3680.7461,-0.003269
3682.6098,-0.003352
3684.4735,-0.003575
3686.3371,-0.004391
3688.2008,-0.006036
3690.0645,-0.006666
3691.9281,-0.006175
3693.7918,-0.006065
3695.6555,-0.006154
3697.5191,-0.006278
3699.3828,-0.006499
3701.2465,-0.006800
3703.1101,-0.006753
3704.9738,-0.006521
3706.8375,-0.006923
3708.7011,-0.007129
3710.5648,-0.007374
3712.4285,-0.007694
3714.2922,-0.007534
3716.1558,-0.007343
3718.0195,-0.007842
3719.8832,-0.007800
3721.7468,-0.007378
3723.6105,-0.007653
3725.4742,-0.008217
3727.3378,-0.008198
3729.2015,-0.007801
3731.0652,-0.008018
3732.9288,-0.008761
3734.7925,-0.008782
3736.6562,-0.008235
3738.5199,-0.007753
3740.3835,-0.008144
3742.2472,-0.008872
3744.1109,-0.009505
3745.9745,-0.009171
3747.8382,-0.008657
3749.7019,-0.009305
3751.5655,-0.009338
3753.4292,-0.008579
3755.2929,-0.008340
3757.1565,-0.008618
3759.0202,-0.008935
3760.8839,-0.008292
3762.7475,-0.007857
3764.6112,-0.008053
3766.4749,-0.008371
3768.3386,-0.008751
3770.2022,-0.008979
3772.0659,-0.008327
3773.9296,-0.008023
3775.7932,-0.008497
3777.6569,-0.008879
3779.5206,-0.008420
3781.3842,-0.007960
3783.2479,-0.008292
3785.1116,-0.008976
3786.9752,-0.008750
3788.8389,-0.008540
3790.7026,-0.008443
3792.5662,-0.008324
3794.4299,-0.008469
3796.2936,-0.008892
3798.1573,-0.008965
3800.0209,-0.009223
3801.8846,-0.009824
3803.7483,-0.009125
3805.6119,-0.008476
3807.4756,-0.008944
3809.3393,-0.008569
3811.2029,-0.008284
3813.0666,-0.008864
3814.9303,-0.009530
3816.7939,-0.009542
3818.6576,-0.009259
3820.5213,-0.009283
3822.3850,-0.009075
3824.2486,-0.008614
3826.1123,-0.008649
3827.9760,-0.008573
3829.8396,-0.008687
3831.7033,-0.009129
3833.5670,-0.009164
3835.4306,-0.009271
3837.2943,-0.009749
3839.1580,-0.009721
3841.0216,-0.009153
3842.8853,-0.008740
3844.7490,-0.008916
3846.6126,-0.008582
3848.4763,-0.008637
3850.3400,-0.009158
3852.2037,-0.009727
3854.0673,-0.010009
3855.9310,-0.009219
3857.7947,-0.008677
3859.6583,-0.009106
3861.5220,-0.009396
3863.3857,-0.009274
3865.2493,-0.009243
3867.1130,-0.009002
3868.9767,-0.009003
3870.8403,-0.009528
3872.7040,-0.009009
3874.5677,-0.009126
3876.4314,-0.008827
3878.2950,-0.008601
3880.1587,-0.008771
3882.0224,-0.008776
3883.8860,-0.008812
3885.7497,-0.008939
3887.6134,-0.008741
3889.4770,-0.008958
3891.3407,-0.009388
3893.2044,-0.009286
3895.0680,-0.008965
3896.9317,-0.008965
3898.7954,-0.008931
3900.6590,-0.009123
3902.5227,-0.009192
3904.3864,-0.008858
3906.2501,-0.008200
3908.1137,-0.008117
3909.9774,-0.008410
3911.8411,-0.008565
3913.7047,-0.008646
3915.5684,-0.008638
3917.4321,-0.008473
3919.2957,-0.008528
3921.1594,-0.008369
3923.0231,-0.008299
3924.8867,-0.008961
3926.7504,-0.009305
3928.6141,-0.008762
3930.4777,-0.008492
3932.3414,-0.008369
3934.2051,-0.008323
3936.0688,-0.008196
3937.9324,-0.008171
3939.7961,-0.007986
3941.6598,-0.008186
3943.5234,-0.008196
3945.3871,-0.008139
3947.2508,-0.008589
3949.1144,-0.008502
3950.9781,-0.007900
3952.8418,-0.007895
3954.7054,-0.008444
3956.5691,-0.008731
3958.4328,-0.008508
3960.2965,-0.008384
3962.1601,-0.008657
3964.0238,-0.008513
3965.8875,-0.008223
3967.7511,-0.008046
3969.6148,-0.007659
3971.4785,-0.007680
3973.3421,-0.008351
3975.2058,-0.008644
3977.0695,-0.008346
3978.9331,-0.008252
3980.7968,-0.007962
3982.6605,-0.008093
3984.5241,-0.008214
3986.3878,-0.008141
3988.2515,-0.008110
3990.1152,-0.008231
3991.9788,-0.008042
3993.8425,-0.008092
3995.7062,-0.008165
3997.5698,-0.008157
3999.4335,-0.008197
