Wavenumber,Intensity
650.4205,0.289962
652.2841,0.286868
654.1478,0.287184
656.0115,0.286639
657.8751,0.282235
659.7388,0.281493
661.6025,0.281143
663.4661,0.277707
665.3298,0.272210
667.1935,0.271803
669.0571,0.279204
670.9208,0.277987
672.7845,0.273997
674.6481,0.270504
676.5118,0.267273
678.3755,0.265028
680.2392,0.261606
682.1028,0.259936
683.9665,0.258628
685.8302,0.256658
687.6938,0.256274
689.5575,0.255813
691.4212,0.252613
693.2848,0.249990
695.1485,0.248520
697.0122,0.248563
698.8758,0.247250
700.7395,0.244186
702.6032,0.241463
704.4669,0.239987
706.3305,0.237737
708.1942,0.235383
710.0579,0.232359
711.9215,0.228691
713.7852,0.225917
715.6489,0.225348
717.5125,0.224392
719.3762,0.222111
721.2399,0.219454
723.1035,0.217082
724.9672,0.214853
726.8309,0.213385
728.6945,0.211667
730.5582,0.209864
732.4219,0.208007
734.2856,0.206780
736.1492,0.205295
738.0129,0.203858
739.8766,0.202893
741.7402,0.202224
743.6039,0.200762
745.4676,0.199483
747.3312,0.197683
749.1949,0.195617
751.0586,0.193403
752.9222,0.191568
754.7859,0.189512
756.6496,0.188019
758.5132,0.186729
760.3769,0.185012
762.2406,0.183289
764.1043,0.182412
765.9679,0.181165
767.8316,0.179366
769.6953,0.177360
771.5589,0.175384
773.4226,0.173446
775.2863,0.172478
777.1499,0.171438
779.0136,0.169807
780.8773,0.167736
782.7409,0.166009
784.6046,0.164518
786.4683,0.163305
788.3320,0.161861
790.1956,0.160219
792.0593,0.158647
793.9230,0.157391
795.7866,0.156193
797.6503,0.155033
799.5140,0.153782
801.3776,0.152830
803.2413,0.151991
805.1050,0.150939
806.9686,0.149424
808.8323,0.148396
810.6960,0.147136
812.5596,0.145527
814.4233,0.144171
816.2870,0.143465
818.1507,0.142740
820.0143,0.141179
821.8780,0.139690
823.7417,0.138514
825.6053,0.136581
827.4690,0.135349
829.3327,0.134404
831.1963,0.132978
833.0600,0.131480
834.9237,0.130373
836.7873,0.129385
838.6510,0.128246
840.5147,0.127383
842.3784,0.126505
844.2420,0.125030
846.1057,0.124076
847.9694,0.123747
849.8330,0.123210
851.6967,0.122369
853.5604,0.121733
855.4240,0.121373
857.2877,0.120571
859.1514,0.119573
861.0150,0.119197
862.8787,0.118942
864.7424,0.118518
866.6060,0.118046
868.4697,0.117798
870.3334,0.117705
872.1971,0.117387
874.0607,0.116527
875.9244,0.115787
877.7881,0.114857
879.6517,0.113400
881.5154,0.111887
883.3791,0.110661
885.2427,0.109709
887.1064,0.108726
888.9701,0.107810
890.8337,0.107397
892.6974,0.107226
894.5611,0.106888
896.4247,0.106190
898.2884,0.105513
900.1521,0.105157
902.0158,0.104702
903.8794,0.104066
905.7431,0.103834
907.6068,0.103835
909.4704,0.103925
911.3341,0.104265
913.1978,0.104681
915.0614,0.105146
916.9251,0.105658
918.7888,0.106340
920.6524,0.107071
922.5161,0.107550
924.3798,0.107938
926.2435,0.108169
928.1071,0.108375
929.9708,0.108395
931.8345,0.108497
933.6981,0.108634
935.5618,0.108535
937.4255,0.108487
939.2891,0.108765
941.1528,0.109067
943.0165,0.109505
944.8801,0.109725
946.7438,0.109661
948.6075,0.109366
950.4711,0.109022
952.3348,0.108617
954.1985,0.108377
956.0622,0.108533
957.9258,0.109322
959.7895,0.110651
961.6532,0.112586
963.5168,0.115098
965.3805,0.117744
967.2442,0.120084
969.1078,0.121930
970.9715,0.123269
972.8352,0.124431
974.6988,0.125800
976.5625,0.127635
978.4262,0.129765
980.2899,0.132229
982.1535,0.134608
984.0172,0.136842
985.8809,0.138900
987.7445,0.140500
989.6082,0.141565
991.4719,0.142393
993.3355,0.143067
995.1992,0.143589
997.0629,0.144202
998.9265,0.144877
1000.7902,0.145579
1002.6539,0.146558
1004.5175,0.147745
1006.3812,0.149518
1008.2449,0.152014
1010.1086,0.155121
1011.9722,0.158816
1013.8359,0.163243
1015.6996,0.167951
1017.5632,0.172773
1019.4269,0.177497
1021.2906,0.181678
1023.1542,0.185326
1025.0179,0.188525
1026.8816,0.191512
1028.7452,0.194400
1030.6089,0.197061
1032.4726,0.199256
1034.3362,0.201012
1036.1999,0.202497
1038.0636,0.203763
1039.9273,0.204858
1041.7909,0.205663
1043.6546,0.206286
1045.5183,0.206933
1047.3819,0.207804
1049.2456,0.208671
1051.1093,0.209735
1052.9729,0.211226
1054.8366,0.213046
1056.7003,0.215070
1058.5639,0.217137
1060.4276,0.219199
1062.2913,0.221103
1064.1550,0.222879
1066.0186,0.224719
1067.8823,0.226331
1069.7460,0.227340
1071.6096,0.227753
1073.4733,0.227415
1075.3370,0.226007
1077.2006,0.223649
1079.0643,0.220380
1080.9280,0.216182
1082.7916,0.211302
1084.6553,0.206160
1086.5190,0.201185
1088.3826,0.196508
1090.2463,0.192255
1092.1100,0.188531
1093.9737,0.185243
1095.8373,0.182071
1097.7010,0.178904
1099.5647,0.175883
1101.4283,0.173050
1103.2920,0.170589
1105.1557,0.168500
1107.0193,0.166672
1108.8830,0.164967
1110.7467,0.163337
1112.6103,0.161737
1114.4740,0.160124
1116.3377,0.158342
1118.2014,0.156435
1120.0650,0.154496
1121.9287,0.152612
1123.7924,0.150798
1125.6560,0.149102
1127.5197,0.147271
1129.3834,0.145180
1131.2470,0.142992
1133.1107,0.140728
1134.9744,0.138537
1136.8380,0.136447
1138.7017,0.134435
1140.5654,0.132649
1142.4290,0.131345
1144.2927,0.130561
1146.1564,0.130066
1148.0201,0.129694
1149.8837,0.129567
1151.7474,0.129528
1153.6111,0.129324
1155.4747,0.128860
1157.3384,0.128159
1159.2021,0.127182
1161.0657,0.125933
1162.9294,0.124559
1164.7931,0.122848
1166.6567,0.120940
1168.5204,0.118859
1170.3841,0.116389
1172.2477,0.113471
1174.1114,0.110468
1175.9751,0.107562
1177.8388,0.104912
1179.7024,0.103003
1181.5661,0.101998
1183.4298,0.101589
1185.2934,0.101639
1187.1571,0.101946
1189.0208,0.102436
1190.8844,0.103021
1192.7481,0.103663
1194.6118,0.104470
1196.4754,0.105513
1198.3391,0.106733
1200.2028,0.108150
1202.0665,0.109623
1203.9301,0.110848
1205.7938,0.111791
1207.6575,0.112570
1209.5211,0.113222
1211.3848,0.113917
1213.2485,0.114644
1215.1121,0.115642
1216.9758,0.117085
1218.8395,0.118755
1220.7031,0.120673
1222.5668,0.122760
1224.4305,0.124920
1226.2941,0.127164
1228.1578,0.129268
1230.0215,0.131133
1231.8852,0.132895
1233.7488,0.134501
1235.6125,0.135778
1237.4762,0.136614
1239.3398,0.137014
1241.2035,0.136950
1243.0672,0.136459
1244.9308,0.135591
1246.7945,0.134435
1248.6582,0.133041
1250.5218,0.131401
1252.3855,0.129892
1254.2492,0.128610
1256.1129,0.127477
1257.9765,0.126413
1259.8402,0.125192
1261.7039,0.123855
1263.5675,0.122554
1265.4312,0.121343
1267.2949,0.120333
1269.1585,0.119548
1271.0222,0.118952
1272.8859,0.118189
1274.7495,0.117535
1276.6132,0.117167
1278.4769,0.116950
1280.3405,0.116600
1282.2042,0.116074
1284.0679,0.115586
1285.9316,0.115299
1287.7952,0.115124
1289.6589,0.114932
1291.5226,0.114867
1293.3862,0.115022
1295.2499,0.115434
1297.1136,0.116110
1298.9772,0.116846
1300.8409,0.117689
1302.7046,0.118448
1304.5682,0.119246
1306.4319,0.120058
1308.2956,0.120831
1310.1592,0.121570
1312.0229,0.122430
1313.8866,0.122895
1315.7503,0.122886
1317.6139,0.122830
1319.4776,0.122444
1321.3413,0.121693
1323.2049,0.120987
1325.0686,0.120376
1326.9323,0.119788
1328.7959,0.119372
1330.6596,0.119106
1332.5233,0.118778
1334.3869,0.118385
1336.2506,0.118464
1338.1143,0.119323
1339.9780,0.120050
1341.8416,0.119318
1343.7053,0.118421
1345.5690,0.118007
1347.4326,0.117554
1349.2963,0.117120
1351.1600,0.116601
1353.0236,0.116368
1354.8873,0.116412
1356.7510,0.116079
1358.6146,0.115766
1360.4783,0.116822
1362.3420,0.119597
1364.2056,0.121110
1366.0693,0.121868
1367.9330,0.123878
1369.7967,0.125470
1371.6603,0.127177
1373.5240,0.131062
1375.3877,0.134316
1377.2513,0.135722
1379.1150,0.137744
1380.9787,0.139479
1382.8423,0.140624
1384.7060,0.142369
1386.5697,0.146335
1388.4333,0.148728
1390.2970,0.148050
1392.1607,0.148673
1394.0244,0.152214
1395.8880,0.154631
1397.7517,0.155340
1399.6154,0.156214
1401.4790,0.154485
1403.3427,0.154012
1405.2064,0.154295
1407.0700,0.152440
1408.9337,0.150351
1410.7974,0.149026
1412.6610,0.146952
1414.5247,0.144295
1416.3884,0.142915
1418.2520,0.145003
1420.1157,0.144589
1421.9794,0.140915
1423.8431,0.139969
1425.7067,0.138890
1427.5704,0.138518
1429.4341,0.140738
1431.2977,0.142315
1433.1614,0.143089
1435.0251,0.147975
1436.8887,0.156759
1438.7524,0.157983
1440.6161,0.157663
1442.4797,0.159132
1444.3434,0.160264
1446.2071,0.162030
1448.0707,0.164291
1449.9344,0.163148
1451.7981,0.160288
1453.6618,0.157595
1455.5254,0.159476
1457.3891,0.163161
1459.2528,0.156053
1461.1164,0.148271
1462.9801,0.145190
1464.8438,0.145034
1466.7074,0.140762
1468.5711,0.135028
1470.4348,0.132201
1472.2984,0.132445
1474.1621,0.129219
1476.0258,0.125094
1477.8895,0.121532
1479.7531,0.119529
1481.6168,0.118882
1483.4805,0.117910
1485.3441,0.118573
1487.2078,0.123131
1489.0715,0.130416
1490.9351,0.134758
1492.7988,0.134765
1494.6625,0.139433
1496.5261,0.150132
1498.3898,0.157994
1500.2535,0.160181
1502.1171,0.160553
1503.9808,0.165265
1505.8445,0.186506
1507.7082,0.207994
1509.5718,0.207323
1511.4355,0.209479
1513.2992,0.214519
1515.1628,0.220425
1517.0265,0.227225
1518.8902,0.229499
1520.7538,0.237604
1522.6175,0.244379
1524.4812,0.245000
1526.3448,0.249776
1528.2085,0.252198
1530.0722,0.251754
1531.9359,0.255388
1533.7995,0.261295
1535.6632,0.256713
1537.5269,0.254860
1539.3905,0.266189
1541.2542,0.273486
1543.1179,0.268652
1544.9815,0.263694
1546.8452,0.256380
1548.7089,0.250969
1550.5725,0.245083
1552.4362,0.237325
1554.2999,0.229583
1556.1635,0.223427
1558.0272,0.227417
1559.8909,0.226563
1561.7546,0.212150
1563.6182,0.203756
1565.4819,0.197959
1567.3456,0.193906
1569.2092,0.192873
1571.0729,0.188245
1572.9366,0.182330
1574.8002,0.182802
1576.6639,0.185610
1578.5276,0.181936
1580.3912,0.179143
1582.2549,0.179247
1584.1186,0.180417
1585.9822,0.182333
1587.8459,0.184918
1589.7096,0.188495
1591.5733,0.193041
1593.4369,0.198690
1595.3006,0.205012
1597.1643,0.211058
1599.0279,0.217105
1600.8916,0.224758
1602.7553,0.233453
1604.6189,0.241947
1606.4826,0.251144
1608.3463,0.261741
1610.2099,0.270700
1612.0736,0.277255
1613.9373,0.284262
1615.8010,0.298735
1617.6646,0.311394
1619.5283,0.311673
1621.3920,0.315198
1623.2556,0.325554
1625.1193,0.330471
1626.9830,0.332875
1628.8466,0.334847
1630.7103,0.332062
1632.5740,0.328462
1634.4376,0.331668
1636.3013,0.335092
1638.1650,0.327188
1640.0286,0.318001
1641.8923,0.309725
1643.7560,0.302550
1645.6197,0.298812
1647.4833,0.292572
1649.3470,0.281302
1651.2107,0.275531
1653.0743,0.276708
1654.9380,0.264510
1656.8017,0.251047
1658.6653,0.240591
1660.5290,0.232145
1662.3927,0.224223
1664.2563,0.214234
1666.1200,0.204278
1667.9837,0.196843
1669.8474,0.189570
1671.7110,0.180516
1673.5747,0.172361
1675.4384,0.164469
1677.3020,0.154959
1679.1657,0.146540
1681.0294,0.138294
1682.8930,0.131941
1684.7567,0.123118
1686.6204,0.113330
1688.4840,0.105308
1690.3477,0.096730
1692.2114,0.088551
1694.0750,0.081868
1695.9387,0.073920
1697.8024,0.066771
1699.6661,0.061927
1701.5297,0.055221
1703.3934,0.051109
1705.2571,0.047654
1707.1207,0.043766
1708.9844,0.040991
1710.8481,0.038704
1712.7117,0.036916
1714.5754,0.035286
1716.4391,0.033563
1718.3027,0.031670
1720.1664,0.029871
1722.0301,0.028754
1723.8937,0.027715
1725.7574,0.026575
1727.6211,0.025614
1729.4848,0.024886
1731.3484,0.024379
1733.2121,0.023978
1735.0758,0.022356
1736.9394,0.021447
1738.8031,0.021226
1740.6668,0.020405
1742.5304,0.019596
1744.3941,0.018822
1746.2578,0.018204
1748.1214,0.017598
1749.9851,0.016803
1751.8488,0.015652
1753.7125,0.014775
1755.5761,0.014321
1757.4398,0.013620
1759.3035,0.013034
1761.1671,0.012457
1763.0308,0.011951
1764.8945,0.011877
1766.7581,0.011857
1768.6218,0.011613
1770.4855,0.011209
1772.3491,0.010362
1774.2128,0.009936
1776.0765,0.010109
1777.9401,0.010014
1779.8038,0.009820
1781.6675,0.009420
1783.5312,0.009283
1785.3948,0.009137
1787.2585,0.009089
1789.1222,0.009219
1790.9858,0.009240
1792.8495,0.008662
1794.7132,0.008125
1796.5768,0.008103
1798.4405,0.008340
1800.3042,0.008254
1802.1678,0.007943
1804.0315,0.007790
1805.8952,0.007743
1807.7589,0.007761
1809.6225,0.007634
1811.4862,0.007178
1813.3499,0.006691
1815.2135,0.006608
1817.0772,0.006726
1818.9409,0.006733
1820.8045,0.006464
1822.6682,0.006653
1824.5319,0.007158
1826.3955,0.007071
1828.2592,0.007016
1830.1229,0.006524
1831.9865,0.006202
1833.8502,0.006540
1835.7139,0.006542
1837.5776,0.006261
1839.4412,0.006219
1841.3049,0.006286
1843.1686,0.006024
1845.0322,0.005846
1846.8959,0.005980
1848.7596,0.005994
1850.6232,0.005934
1852.4869,0.005941
1854.3506,0.005746
1856.2142,0.005546
1858.0779,0.005410
1859.9416,0.005495
1861.8052,0.005737
1863.6689,0.005917
1865.5326,0.006059
1867.3963,0.006315
1869.2599,0.005799
1871.1236,0.005427
1872.9873,0.005616
1874.8509,0.005963
1876.7146,0.006218
1878.5783,0.006200
1880.4419,0.005868
1882.3056,0.005520
1884.1693,0.005376
1886.0329,0.005435
1887.8966,0.005559
1889.7603,0.005637
1891.6240,0.005536
1893.4876,0.005681
1895.3513,0.005590
1897.2150,0.005594
1899.0786,0.005700
1900.9423,0.005509
1902.8060,0.005429
1904.6696,0.006019
1906.5333,0.006218
1908.3970,0.005833
1910.2606,0.005588
1912.1243,0.005705
1913.9880,0.005390
1915.8516,0.005503
1917.7153,0.005655
1919.5790,0.005436
1921.4427,0.005879
1923.3063,0.006663
1925.1700,0.006201
1927.0337,0.005391
1928.8973,0.005501
1930.7610,0.005904
1932.6247,0.006430
1934.4883,0.006364
1936.3520,0.005511
1938.2157,0.006051
1940.0793,0.006162
1941.9430,0.005416
1943.8067,0.005310
1945.6704,0.006219
1947.5340,0.006581
1949.3977,0.006473
1951.2614,0.006376
1953.1250,0.006062
1954.9887,0.005801
1956.8524,0.006415
1958.7160,0.006647
1960.5797,0.006991
1962.4434,0.007183
1964.3070,0.006818
1966.1707,0.006449
1968.0344,0.006388
1969.8980,0.006620
1971.7617,0.007098
1973.6254,0.007772
1975.4891,0.008792
1977.3527,0.008952
1979.2164,0.008829
1981.0801,0.008431
1982.9437,0.008611
1984.8074,0.008874
1986.6711,0.008740
1988.5347,0.008685
1990.3984,0.009730
1992.2621,0.009072
1994.1257,0.008301
1995.9894,0.008697
1997.8531,0.008955
1999.7167,0.009614
2001.5804,0.010070
2003.4441,0.009332
2005.3078,0.009053
2007.1714,0.009463
2009.0351,0.009817
2010.8988,0.009399
2012.7624,0.009861
2014.6261,0.010279
2016.4898,0.010157
2018.3534,0.010048
2020.2171,0.009915
2022.0808,0.009726
2023.9444,0.010791
2025.8081,0.011928
2027.6718,0.011952
2029.5355,0.011620
2031.3991,0.012925
2033.2628,0.013989
2035.1265,0.013971
2036.9901,0.013109
2038.8538,0.013242
2040.7175,0.013814
2042.5811,0.014287
2044.4448,0.015126
2046.3085,0.016719
2048.1721,0.017534
2050.0358,0.017313
2051.8995,0.016483
2053.7631,0.016956
2055.6268,0.017935
2057.4905,0.017669
2059.3542,0.017187
2061.2178,0.018207
2063.0815,0.019330
2064.9452,0.019010
2066.8088,0.017920
2068.6725,0.017141
2070.5362,0.017037
2072.3998,0.017634
2074.2635,0.017654
2076.1272,0.017273
2077.9908,0.017073
2079.8545,0.016759
2081.7182,0.016115
2083.5819,0.015590
2085.4455,0.015010
2087.3092,0.015174
2089.1729,0.015626
2091.0365,0.015499
2092.9002,0.014687
2094.7639,0.014642
2096.6275,0.015322
2098.4912,0.015642
2100.3549,0.015475
2102.2185,0.015939
2104.0822,0.015843
2105.9459,0.014852
2107.8095,0.014388
2109.6732,0.014571
2111.5369,0.013745
2113.4006,0.014122
2115.2642,0.015198
2117.1279,0.015101
2118.9916,0.014855
2120.8552,0.015137
2122.7189,0.014620
2124.5826,0.014190
2126.4462,0.013968
2128.3099,0.013987
2130.1736,0.014040
2132.0372,0.013516
2133.9009,0.013306
2135.7646,0.013686
2137.6282,0.013435
2139.4919,0.013894
2141.3556,0.014426
2143.2193,0.014668
2145.0829,0.013205
2146.9466,0.012604
2148.8103,0.013177
2150.6739,0.014143
2152.5376,0.014152
2154.4013,0.013433
2156.2649,0.014233
2158.1286,0.016680
2159.9923,0.017095
2161.8559,0.017009
2163.7196,0.016762
2165.5833,0.016601
2167.4470,0.016271
2169.3106,0.015886
2171.1743,0.014809
2173.0380,0.014742
2174.9016,0.015257
2176.7653,0.015846
2178.6290,0.016149
2180.4926,0.016477
2182.3563,0.016239
2184.2200,0.015851
2186.0836,0.015082
2187.9473,0.014751
2189.8110,0.015236
2191.6746,0.016716
2193.5383,0.015811
2195.4020,0.014954
2197.2657,0.015235
2199.1293,0.015931
2200.9930,0.015209
2202.8567,0.014229
2204.7203,0.013517
2206.5840,0.013749
2208.4477,0.014570
2210.3113,0.015211
2212.1750,0.014773
2214.0387,0.014453
2215.9023,0.013722
2217.7660,0.014193
2219.6297,0.014304
2221.4934,0.014131
2223.3570,0.013352
2225.2207,0.012869
2227.0844,0.013830
2228.9480,0.014457
2230.8117,0.014527
2232.6754,0.014658
2234.5390,0.014604
2236.4027,0.014474
2238.2664,0.013731
2240.1300,0.013939
2241.9937,0.013419
2243.8574,0.013338
2245.7210,0.014282
2247.5847,0.014833
2249.4484,0.014416
2251.3121,0.013863
2253.1757,0.013977
2255.0394,0.014038
2256.9031,0.014039
2258.7667,0.013632
2260.6304,0.013081
2262.4941,0.013067
2264.3577,0.013351
2266.2214,0.013623
2268.0851,0.013581
2269.9487,0.013879
2271.8124,0.013887
2273.6761,0.013727
2275.5397,0.013763
2277.4034,0.013860
2279.2671,0.013818
2281.1308,0.014089
2282.9944,0.014005
2284.8581,0.013631
2286.7218,0.013879
2288.5854,0.013776
2290.4491,0.013230
2292.3128,0.013443
2294.1764,0.013402
2296.0401,0.013073
2297.9038,0.012918
2299.7674,0.012996
2301.6311,0.013098
2303.4948,0.013180
2305.3585,0.012991
2307.2221,0.012817
2309.0858,0.012772
2310.9495,0.013167
2312.8131,0.013533
2314.6768,0.013939
2316.5405,0.013963
2318.4041,0.013710
2320.2678,0.013528
2322.1315,0.013584
2323.9951,0.013633
2325.8588,0.013334
2327.7225,0.012859
2329.5861,0.012504
2331.4498,0.012439
2333.3135,0.012687
2335.1772,0.012648
2337.0408,0.012675
2338.9045,0.012821
2340.7682,0.013202
2342.6318,0.013423
2344.4955,0.012808
2346.3592,0.012409
2348.2228,0.012059
2350.0865,0.011607
2351.9502,0.011891
2353.8138,0.012747
2355.6775,0.013022
2357.5412,0.012806
2359.4049,0.013308
2361.2685,0.013554
2363.1322,0.013795
2364.9959,0.014316
2366.8595,0.014289
2368.7232,0.013936
2370.5869,0.013683
2372.4505,0.013534
2374.3142,0.013589
2376.1779,0.012976
2378.0415,0.012416
2379.9052,0.011937
2381.7689,0.011796
2383.6325,0.011766
2385.4962,0.011838
2387.3599,0.011808
2389.2236,0.011970
2391.0872,0.012222
2392.9509,0.012068
2394.8146,0.011840
2396.6782,0.011978
2398.5419,0.012092
2400.4056,0.012278
2402.2692,0.012041
2404.1329,0.011966
2405.9966,0.012148
2407.8602,0.012369
2409.7239,0.012408
2411.5876,0.012109
2413.4512,0.012016
2415.3149,0.012435
2417.1786,0.012521
2419.0423,0.012447
2420.9059,0.012224
2422.7696,0.012227
2424.6333,0.012365
2426.4969,0.012629
2428.3606,0.012384
2430.2243,0.012352
2432.0879,0.012751
2433.9516,0.012930
2435.8153,0.012560
2437.6789,0.012461
2439.5426,0.012626
2441.4063,0.013111
2443.2700,0.013339
2445.1336,0.013100
2446.9973,0.012626
2448.8610,0.012712
2450.7246,0.013011
2452.5883,0.013189
2454.4520,0.013056
2456.3156,0.012983
2458.1793,0.012797
2460.0430,0.012862
2461.9066,0.012952
2463.7703,0.013023
2465.6340,0.013150
2467.4976,0.013281
2469.3613,0.012924
2471.2250,0.012736
2473.0887,0.012817
2474.9523,0.013172
2476.8160,0.013304
2478.6797,0.013360
2480.5433,0.013531
2482.4070,0.013558
2484.2707,0.013485
2486.1343,0.013334
2487.9980,0.013121
2489.8617,0.013100
2491.7253,0.013339
2493.5890,0.013530
2495.4527,0.013315
2497.3164,0.013437
2499.1800,0.013339
2501.0437,0.013284
2502.9074,0.013522
2504.7710,0.013756
2506.6347,0.013709
2508.4984,0.013661
2510.3620,0.013612
2512.2257,0.013518
2514.0894,0.013832
2515.9530,0.014032
2517.8167,0.013951
2519.6804,0.013869
2521.5440,0.013771
2523.4077,0.014009
2525.2714,0.014420
2527.1351,0.014663
2528.9987,0.014559
2530.8624,0.014379
2532.7261,0.014380
2534.5897,0.014095
2536.4534,0.013791
2538.3171,0.014058
2540.1807,0.014205
2542.0444,0.014445
2543.9081,0.014556
2545.7717,0.014231
2547.6354,0.014149
2549.4991,0.014643
2551.3627,0.014610
2553.2264,0.014707
2555.0901,0.014850
2556.9538,0.014835
2558.8174,0.014820
2560.6811,0.015035
2562.5448,0.015130
2564.4084,0.015138
2566.2721,0.015145
2568.1358,0.015084
2569.9994,0.015273
2571.8631,0.015800
2573.7268,0.015708
2575.5904,0.015612
2577.4541,0.016006
2579.3178,0.016285
2581.1815,0.016076
2583.0451,0.016036
2584.9088,0.015972
2586.7725,0.016035
2588.6361,0.016580
2590.4998,0.017115
2592.3635,0.017124
2594.2271,0.017260
2596.0908,0.017238
2597.9545,0.017290
2599.8181,0.017390
2601.6818,0.017638
2603.5455,0.017780
2605.4091,0.017976
2607.2728,0.018382
2609.1365,0.018644
2611.0002,0.018789
2612.8638,0.018876
2614.7275,0.018754
2616.5912,0.018950
2618.4548,0.019147
2620.3185,0.019466
2622.1822,0.019619
2624.0458,0.019799
2625.9095,0.020258
2627.7732,0.020608
2629.6368,0.020600
2631.5005,0.020490
2633.3642,0.020682
2635.2279,0.020951
2637.0915,0.020995
2638.9552,0.021082
2640.8189,0.021243
2642.6825,0.021480
2644.5462,0.021807
2646.4099,0.021896
2648.2735,0.021996
2650.1372,0.022226
2652.0009,0.022370
2653.8645,0.022498
2655.7282,0.022745
2657.5919,0.022866
2659.4555,0.022814
2661.3192,0.022897
2663.1829,0.023110
2665.0466,0.023261
2666.9102,0.023263
2668.7739,0.023442
2670.6376,0.023619
2672.5012,0.023789
2674.3649,0.024075
2676.2286,0.024379
2678.0922,0.024547
2679.9559,0.024687
2681.8196,0.024830
2683.6832,0.025068
2685.5469,0.025222
2687.4106,0.025393
2689.2742,0.025584
2691.1379,0.025733
2693.0016,0.025836
2694.8653,0.026015
2696.7289,0.026190
2698.5926,0.026553
2700.4563,0.026885
2702.3199,0.027137
2704.1836,0.027321
2706.0473,0.027658
2707.9109,0.027887
2709.7746,0.028029
2711.6383,0.028293
2713.5019,0.028708
2715.3656,0.029004
2717.2293,0.029313
2719.0930,0.029572
2720.9566,0.029918
2722.8203,0.030192
2724.6840,0.030423
2726.5476,0.030703
2728.4113,0.031109
2730.2750,0.031348
2732.1386,0.031652
2734.0023,0.032012
2735.8660,0.032390
2737.7296,0.032759
2739.5933,0.033143
2741.4570,0.033513
2743.3206,0.033953
2745.1843,0.034433
2747.0480,0.034843
2748.9117,0.035034
2750.7753,0.035139
2752.6390,0.035453
2754.5027,0.036039
2756.3663,0.036342
2758.2300,0.036433
2760.0937,0.036761
2761.9573,0.037425
2763.8210,0.037961
2765.6847,0.038341
2767.5483,0.038567
2769.4120,0.038929
2771.2757,0.039428
2773.1394,0.039812
2775.0030,0.040042
2776.8667,0.040429
2778.7304,0.040993
2780.5940,0.041401
2782.4577,0.041658
2784.3214,0.042226
2786.1850,0.042556
2788.0487,0.042825
2789.9124,0.043359
2791.7760,0.043924
2793.6397,0.044418
2795.5034,0.044891
2797.3670,0.045207
2799.2307,0.045614
2801.0944,0.046031
2802.9581,0.046599
2804.8217,0.047129
2806.6854,0.047554
2808.5491,0.047927
2810.4127,0.048464
2812.2764,0.048806
2814.1401,0.049203
2816.0037,0.049867
2817.8674,0.050344
2819.7311,0.050602
2821.5947,0.051197
2823.4584,0.051904
2825.3221,0.052468
2827.1857,0.052981
2829.0494,0.053648
2830.9131,0.054121
2832.7768,0.054670
2834.6404,0.055474
2836.5041,0.056507
2838.3678,0.057436
2840.2314,0.058236
2842.0951,0.059313
2843.9588,0.060622
2845.8224,0.062039
2847.6861,0.063628
2849.5498,0.065028
2851.4134,0.066050
2853.2771,0.066522
2855.1408,0.066833
2857.0045,0.067136
2858.8681,0.067591
2860.7318,0.068103
2862.5955,0.068870
2864.4591,0.069848
2866.3228,0.070997
2868.1865,0.072137
2870.0501,0.073276
2871.9138,0.074147
2873.7775,0.074709
2875.6411,0.074874
2877.5048,0.074958
2879.3685,0.075179
2881.2321,0.075379
2883.0958,0.075551
2884.9595,0.075819
2886.8232,0.076219
2888.6868,0.076799
2890.5505,0.077189
2892.4142,0.077635
2894.2778,0.078268
2896.1415,0.079051
2898.0052,0.079655
2899.8688,0.080448
2901.7325,0.081582
2903.5962,0.082599
2905.4598,0.083679
2907.3235,0.085181
2909.1872,0.086694
2911.0509,0.088357
2912.9145,0.090145
2914.7782,0.091714
2916.6419,0.093122
2918.5055,0.094358
2920.3692,0.095258
2922.2329,0.096339
2924.0965,0.097335
2925.9602,0.097833
2927.8239,0.097982
2929.6875,0.097970
2931.5512,0.097664
2933.4149,0.097454
2935.2785,0.097328
2937.1422,0.097106
2939.0059,0.096878
2940.8696,0.096759
2942.7332,0.096408
2944.5969,0.096195
2946.4606,0.096389
2948.3242,0.097082
2950.1879,0.097922
2952.0516,0.098726
2953.9152,0.099555
2955.7789,0.100430
2957.6426,0.101119
2959.5062,0.101409
2961.3699,0.101242
2963.2336,0.100739
2965.0972,0.100032
2966.9609,0.099386
2968.8246,0.098812
2970.6883,0.098217
2972.5519,0.097656
2974.4156,0.097154
2976.2793,0.096469
2978.1429,0.095870
2980.0066,0.095291
2981.8703,0.094796
2983.7339,0.094303
2985.5976,0.093986
2987.4613,0.094262
2989.3249,0.094486
2991.1886,0.094108
2993.0523,0.093881
2994.9160,0.093976
2996.7796,0.094094
2998.6433,0.094264
3000.5070,0.094796
3002.3706,0.095525
3004.2343,0.096268
3006.0980,0.097067
3007.9616,0.097933
3009.8253,0.098821
3011.6890,0.099693
3013.5526,0.100519
3015.4163,0.101542
3017.2800,0.102501
3019.1436,0.103513
3021.0073,0.104664
3022.8710,0.105642
3024.7347,0.106695
3026.5983,0.107954
3028.4620,0.109307
3030.3257,0.110472
3032.1893,0.111436
3034.0530,0.112492
3035.9167,0.113478
3037.7803,0.114669
3039.6440,0.116224
3041.5077,0.117610
3043.3713,0.118480
3045.2350,0.119084
3047.0987,0.119973
3048.9624,0.121136
3050.8260,0.122394
3052.6897,0.123851
3054.5534,0.125187
3056.4170,0.126027
3058.2807,0.126534
3060.1444,0.127310
3062.0080,0.128449
3063.8717,0.129341
3065.7354,0.130134
3067.5990,0.130812
3069.4627,0.131186
3071.3264,0.131774
3073.1900,0.132908
3075.0537,0.133772
3076.9174,0.134120
3078.7811,0.134404
3080.6447,0.134729
3082.5084,0.134885
3084.3721,0.135115
3086.2357,0.135590
3088.0994,0.136172
3089.9631,0.136653
3091.8267,0.137051
3093.6904,0.137483
3095.5541,0.137979
3097.4177,0.138517
3099.2814,0.139367
3101.1451,0.139894
3103.0087,0.140221
3104.8724,0.140845
3106.7361,0.141632
3108.5998,0.142463
3110.4634,0.143256
3112.3271,0.144258
3114.1908,0.145455
3116.0544,0.145829
3117.9181,0.146344
3119.7818,0.147365
3121.6454,0.148620
3123.5091,0.149885
3125.3728,0.150838
3127.2364,0.151714
3129.1001,0.153280
3130.9638,0.154894
3132.8275,0.156624
3134.6911,0.157878
3136.5548,0.158809
3138.4185,0.160163
3140.2821,0.161207
3142.1458,0.162299
3144.0095,0.164279
3145.8731,0.166164
3147.7368,0.167613
3149.6005,0.168753
3151.4641,0.170009
3153.3278,0.171715
3155.1915,0.173484
3157.0551,0.174919
3158.9188,0.176305
3160.7825,0.177250
3162.6462,0.179038
3164.5098,0.181055
3166.3735,0.182439
3168.2372,0.183178
3170.1008,0.184688
3171.9645,0.186510
3173.8282,0.187851
3175.6918,0.189112
3177.5555,0.191242
3179.4192,0.193149
3181.2828,0.194095
3183.1465,0.195083
3185.0102,0.196849
3186.8739,0.197869
3188.7375,0.199086
3190.6012,0.200246
3192.4649,0.201258
3194.3285,0.201804
3196.1922,0.203139
3198.0559,0.204736
3199.9195,0.205721
3201.7832,0.206305
3203.6469,0.207006
3205.5105,0.207656
3207.3742,0.208417
3209.2379,0.208926
3211.1015,0.210165
3212.9652,0.211313
3214.8289,0.212059
3216.6926,0.212929
3218.5562,0.213784
3220.4199,0.214413
3222.2836,0.215676
3224.1472,0.216237
3226.0109,0.216529
3227.8746,0.217062
3229.7382,0.218436
3231.6019,0.219267
3233.4656,0.219518
3235.3292,0.219568
3237.1929,0.220632
3239.0566,0.221050
3240.9202,0.221305
3242.7839,0.221939
3244.6476,0.223485
3246.5113,0.224446
3248.3749,0.225069
3250.2386,0.225918
3252.1023,0.226743
3253.9659,0.227370
3255.8296,0.228454
3257.6933,0.228021
3259.5569,0.228015
3261.4206,0.228647
3263.2843,0.229518
3265.1479,0.229680
3267.0116,0.230202
3268.8753,0.230609
3270.7390,0.230565
3272.6026,0.230364
3274.4663,0.230626
3276.3300,0.230529
3278.1936,0.230609
3280.0573,0.230135
3281.9210,0.230050
3283.7846,0.229361
3285.6483,0.228748
3287.5120,0.228001
3289.3756,0.227808
3291.2393,0.227473
3293.1030,0.227636
3294.9666,0.226293
3296.8303,0.224766
3298.6940,0.223943
3300.5577,0.224057
3302.4213,0.223330
3304.2850,0.222771
3306.1487,0.221574
3308.0123,0.220733
3309.8760,0.220028
3311.7397,0.219743
3313.6033,0.219041
3315.4670,0.218300
3317.3307,0.217218
3319.1943,0.217224
3321.0580,0.216876
3322.9217,0.216269
3324.7854,0.216211
3326.6490,0.216666
3328.5127,0.215292
3330.3764,0.214368
3332.2400,0.214295
3334.1037,0.214624
3335.9674,0.213882
3337.8310,0.213980
3339.6947,0.213762
3341.5584,0.213739
3343.4220,0.213174
3345.2857,0.213529
3347.1494,0.212637
3349.0130,0.211526
3350.8767,0.211242
3352.7404,0.211607
3354.6041,0.210882
3356.4677,0.210613
3358.3314,0.209981
3360.1951,0.209841
3362.0587,0.209494
3363.9224,0.209709
3365.7861,0.208698
3367.6497,0.207859
3369.5134,0.207333
3371.3771,0.207295
3373.2407,0.206808
3375.1044,0.206257
3376.9681,0.205122
3378.8317,0.204749
3380.6954,0.203775
3382.5591,0.204301
3384.4228,0.203975
3386.2864,0.202523
3388.1501,0.200781
3390.0138,0.200165
3391.8774,0.199543
3393.7411,0.199731
3395.6048,0.199046
3397.4684,0.198132
3399.3321,0.196900
3401.1958,0.196601
3403.0594,0.196136
3404.9231,0.195152
3406.7868,0.193687
3408.6505,0.193914
3410.5141,0.192746
3412.3778,0.191175
3414.2415,0.189724
3416.1051,0.189159
3417.9688,0.187848
3419.8325,0.186767
3421.6961,0.185438
3423.5598,0.184903
3425.4235,0.183388
3427.2871,0.182487
3429.1508,0.181114
3431.0145,0.180194
3432.8781,0.179005
3434.7418,0.178495
3436.6055,0.177958
3438.4692,0.177424
3440.3328,0.175199
3442.1965,0.173467
3444.0602,0.172255
3445.9238,0.171636
3447.7875,0.170241
3449.6512,0.169003
3451.5148,0.167732
3453.3785,0.166824
3455.2422,0.165012
3457.1058,0.163320
3458.9695,0.161481
3460.8332,0.160119
3462.6969,0.158654
3464.5605,0.158060
3466.4242,0.156281
3468.2879,0.155007
3470.1515,0.153955
3472.0152,0.153096
3473.8789,0.151153
3475.7425,0.149691
3477.6062,0.147826
3479.4699,0.146519
3481.3335,0.145266
3483.1972,0.143925
3485.0609,0.141954
3486.9245,0.140480
3488.7882,0.138725
3490.6519,0.137986
3492.5156,0.135753
3494.3792,0.133841
3496.2429,0.133137
3498.1066,0.132717
3499.9702,0.130668
3501.8339,0.128249
3503.6976,0.126591
3505.5612,0.126018
3507.4249,0.124401
3509.2886,0.122900
3511.1522,0.121092
3513.0159,0.119441
3514.8796,0.117266
3516.7432,0.116093
3518.6069,0.114712
3520.4706,0.112990
3522.3343,0.111311
3524.1979,0.109891
3526.0616,0.108142
3527.9253,0.107062
3529.7889,0.105292
3531.6526,0.103584
3533.5163,0.101170
3535.3799,0.100236
3537.2436,0.098891
3539.1073,0.096901
3540.9709,0.095146
3542.8346,0.094158
3544.6983,0.093217
3546.5620,0.091878
3548.4256,0.090077
3550.2893,0.088579
3552.1530,0.087691
3554.0166,0.086709
3555.8803,0.083488
3557.7440,0.081220
3559.6076,0.079646
3561.4713,0.078025
3563.3350,0.076725
3565.1986,0.076309
3567.0623,0.075389
3568.9260,0.074105
3570.7896,0.071358
3572.6533,0.069427
3574.5170,0.068521
3576.3807,0.067235
3578.2443,0.065700
3580.1080,0.064074
3581.9717,0.062810
3583.8353,0.061951
3585.6990,0.060825
3587.5627,0.059286
3589.4263,0.057298
3591.2900,0.055359
3593.1537,0.053908
3595.0173,0.053677
3596.8810,0.052297
3598.7447,0.049839
3600.6084,0.048303
3602.4720,0.047395
3604.3357,0.046034
3606.1994,0.045292
3608.0630,0.044430
3609.9267,0.043086
3611.7904,0.041255
3613.6540,0.039758
3615.5177,0.037981
3617.3814,0.036442
3619.2450,0.035348
3621.1087,0.033854
3622.9724,0.032024
3624.8360,0.031447
3626.6997,0.030478
3628.5634,0.028985
3630.4271,0.027502
3632.2907,0.025904
3634.1544,0.024550
3636.0181,0.023636
3637.8817,0.022345
3639.7454,0.020921
3641.6091,0.019764
3643.4727,0.018777
3645.3364,0.017543
3647.2001,0.016269
3649.0637,0.014582
3650.9274,0.012554
3652.7911,0.011428
3654.6547,0.010640
3656.5184,0.009732
3658.3821,0.008729
3660.2458,0.007588
3662.1094,0.006846
3663.9731,0.006284
3665.8368,0.005924
3667.7004,0.005001
3669.5641,0.003154
3671.4278,0.002096
3673.2914,0.001714
3675.1551,0.000292
3677.0188,-0.001113
3678.8824,-0.001212
3680.7461,-0.001330
3682.6098,-0.001670
3684.4735,-0.001785
3686.3371,-0.002077
3688.2008,-0.002490
3690.0645,-0.003430
3691.9281,-0.004499
3693.7918,-0.004774
3695.6555,-0.004648
3697.5191,-0.004864
3699.3828,-0.004978
3701.2465,-0.004808
3703.1101,-0.005085
3704.9738,-0.005877
3706.8375,-0.006105
3708.7011,-0.005519
3710.5648,-0.005811
3712.4285,-0.007057
3714.2922,-0.007133
3716.1558,-0.006647
3718.0195,-0.006182
3719.8832,-0.006284
3721.7468,-0.006676
3723.6105,-0.007256
3725.4742,-0.007565
3727.3378,-0.007253
3729.2015,-0.006859
3731.0652,-0.006876
3732.9288,-0.007193
3734.7925,-0.007679
3736.6562,-0.007841
3738.5199,-0.008063
3740.3835,-0.007770
3742.2472,-0.007056
3744.1109,-0.007653
3745.9745,-0.008602
3747.8382,-0.007877
3749.7019,-0.008004
3751.5655,-0.009145
3753.4292,-0.009321
3755.2929,-0.008721
3757.1565,-0.008264
3759.0202,-0.007863
3760.8839,-0.008072
3762.7475,-0.008168
3764.6112,-0.008088
3766.4749,-0.007886
3768.3386,-0.008091
3770.2022,-0.008749
3772.0659,-0.008522
3773.9296,-0.007946
3775.7932,-0.008102
3777.6569,-0.008463
3779.5206,-0.008541
3781.3842,-0.008501
3783.2479,-0.008411
3785.1116,-0.008274
3786.9752,-0.008428
3788.8389,-0.008679
3790.7026,-0.008508
3792.5662,-0.008081
3794.4299,-0.007965
3796.2936,-0.008087
3798.1573,-0.008027
3800.0209,-0.008257
3801.8846,-0.008956
3803.7483,-0.008969
3805.6119,-0.008442
3807.4756,-0.008593
3809.3393,-0.009073
3811.2029,-0.008684
3813.0666,-0.007907
3814.9303,-0.007712
3816.7939,-0.008198
3818.6576,-0.008378
3820.5213,-0.008743
3822.3850,-0.009442
3824.2486,-0.009416
3826.1123,-0.008888
3827.9760,-0.008661
3829.8396,-0.008189
3831.7033,-0.008340
3833.5670,-0.008627
3835.4306,-0.008456
3837.2943,-0.008364
3839.1580,-0.008928
3841.0216,-0.009376
3842.8853,-0.009613
3844.7490,-0.009455
3846.6126,-0.008663
3848.4763,-0.007956
3850.3400,-0.007885
3852.2037,-0.008275
3854.0673,-0.009683
3855.9310,-0.010821
3857.7947,-0.009846
3859.6583,-0.008540
3861.5220,-0.008305
3863.3857,-0.008341
3865.2493,-0.008577
3867.1130,-0.008559
3868.9767,-0.008610
3870.8403,-0.009216
3872.7040,-0.009530
3874.5677,-0.009202
3876.4314,-0.008916
3878.2950,-0.008150
3880.1587,-0.008025
3882.0224,-0.008675
3883.8860,-0.008848
3885.7497,-0.008557
3887.6134,-0.008519
3889.4770,-0.008645
3891.3407,-0.008507
3893.2044,-0.008404
3895.0680,-0.008589
3896.9317,-0.008273
3898.7954,-0.007685
3900.6590,-0.007738
3902.5227,-0.008667
3904.3864,-0.009226
3906.2501,-0.009450
3908.1137,-0.009256
3909.9774,-0.008577
3911.8411,-0.008034
3913.7047,-0.008029
3915.5684,-0.008146
3917.4321,-0.008224
3919.2957,-0.008332
3921.1594,-0.008353
3923.0231,-0.008140
3924.8867,-0.007890
3926.7504,-0.007959
3928.6141,-0.007986
3930.4777,-0.007977
3932.3414,-0.008278
3934.2051,-0.008354
3936.0688,-0.008195
3937.9324,-0.007870
3939.7961,-0.007739
3941.6598,-0.007738
3943.5234,-0.007952
3945.3871,-0.008189
3947.2508,-0.008197
3949.1144,-0.008350
3950.9781,-0.008357
3952.8418,-0.007832
3954.7054,-0.007901
3956.5691,-0.008046
3958.4328,-0.007903
3960.2965,-0.007877
3962.1601,-0.008235
3964.0238,-0.008199
3965.8875,-0.007791
3967.7511,-0.007787
3969.6148,-0.007894
3971.4785,-0.007743
3973.3421,-0.007863
3975.2058,-0.007862
3977.0695,-0.007988
3978.9331,-0.008064
3980.7968,-0.008041
3982.6605,-0.008302
3984.5241,-0.008317
3986.3878,-0.007977
3988.2515,-0.007883
3990.1152,-0.007786
3991.9788,-0.007985
3993.8425,-0.008232
3995.7062,-0.008166
3997.5698,-0.008235
3999.4335,-0.008189
