Wavenumber,Intensity
650.4205,0.166301
652.2841,0.161197
654.1478,0.160275
656.0115,0.162146
657.8751,0.162630
659.7388,0.160774
661.6025,0.159862
663.4661,0.159766
665.3298,0.159562
667.1935,0.158852
669.0571,0.157026
670.9208,0.154938
672.7845,0.153286
674.6481,0.152619
676.5118,0.152346
678.3755,0.151319
680.2392,0.151054
682.1028,0.150273
683.9665,0.148354
685.8302,0.147302
687.6938,0.147693
689.5575,0.146257
691.4212,0.145055
693.2848,0.145359
695.1485,0.145316
697.0122,0.144677
698.8758,0.144619
700.7395,0.143507
702.6032,0.141199
704.4669,0.139482
706.3305,0.138949
708.1942,0.137792
710.0579,0.135548
711.9215,0.133330
713.7852,0.132107
715.6489,0.131513
717.5125,0.130718
719.3762,0.129698
721.2399,0.128871
723.1035,0.127743
724.9672,0.126394
726.8309,0.125209
728.6945,0.124689
730.5582,0.124055
732.4219,0.122953
734.2856,0.122574
736.1492,0.122688
738.0129,0.121997
739.8766,0.121323
741.7402,0.121128
743.6039,0.120618
745.4676,0.119872
747.3312,0.118884
749.1949,0.118016
751.0586,0.117257
752.9222,0.116281
754.7859,0.115550
756.6496,0.114695
758.5132,0.113999
760.3769,0.113508
762.2406,0.112519
764.1043,0.111578
765.9679,0.110795
767.8316,0.110299
769.6953,0.109997
771.5589,0.109294
773.4226,0.108552
775.2863,0.108146
777.1499,0.107718
779.0136,0.106923
780.8773,0.105918
782.7409,0.105284
784.6046,0.104606
786.4683,0.103497
788.3320,0.102648
790.1956,0.102227
792.0593,0.101834
793.9230,0.101362
795.7866,0.100601
797.6503,0.099893
799.5140,0.099689
801.3776,0.099539
803.2413,0.099169
805.1050,0.098711
806.9686,0.098247
808.8323,0.097801
810.6960,0.097252
812.5596,0.097206
814.4233,0.097475
816.2870,0.097119
818.1507,0.096512
820.0143,0.096389
821.8780,0.095719
823.7417,0.094638
825.6053,0.094056
827.4690,0.093342
829.3327,0.092349
831.1963,0.091564
833.0600,0.090922
834.9237,0.090438
836.7873,0.089939
838.6510,0.089269
840.5147,0.088725
842.3784,0.088282
844.2420,0.087451
846.1057,0.086694
847.9694,0.086469
849.8330,0.086343
851.6967,0.086245
853.5604,0.086275
855.4240,0.086187
857.2877,0.086036
859.1514,0.085707
861.0150,0.085444
862.8787,0.085612
864.7424,0.085964
866.6060,0.086009
868.4697,0.086139
870.3334,0.086630
872.1971,0.086886
874.0607,0.086801
875.9244,0.086647
877.7881,0.086406
879.6517,0.086116
881.5154,0.085707
883.3791,0.085284
885.2427,0.084984
887.1064,0.084859
888.9701,0.084798
890.8337,0.084685
892.6974,0.084732
894.5611,0.084698
896.4247,0.084465
898.2884,0.084348
900.1521,0.084117
902.0158,0.083936
903.8794,0.083999
905.7431,0.084241
907.6068,0.084631
909.4704,0.085186
911.3341,0.085773
913.1978,0.086226
915.0614,0.086744
916.9251,0.087592
918.7888,0.088246
920.6524,0.088657
922.5161,0.088959
924.3798,0.089091
926.2435,0.089183
928.1071,0.089343
929.9708,0.089520
931.8345,0.089623
933.6981,0.089689
935.5618,0.089952
937.4255,0.090249
939.2891,0.090487
941.1528,0.090866
943.0165,0.091378
944.8801,0.091900
946.7438,0.092461
948.6075,0.093035
950.4711,0.093603
952.3348,0.094046
954.1985,0.094705
956.0622,0.095650
957.9258,0.096896
959.7895,0.098475
961.6532,0.100036
963.5168,0.101431
965.3805,0.102678
967.2442,0.103645
969.1078,0.104086
970.9715,0.104029
972.8352,0.103929
974.6988,0.103998
976.5625,0.104157
978.4262,0.104562
980.2899,0.105276
982.1535,0.106126
984.0172,0.107013
985.8809,0.107993
987.7445,0.109105
989.6082,0.110223
991.4719,0.111457
993.3355,0.112966
995.1992,0.114625
997.0629,0.116135
998.9265,0.117551
1000.7902,0.119154
1002.6539,0.120951
1004.5175,0.122804
1006.3812,0.124900
1008.2449,0.127288
1010.1086,0.129902
1011.9722,0.132430
1013.8359,0.134975
1015.6996,0.137642
1017.5632,0.140106
1019.4269,0.142181
1021.2906,0.143852
1023.1542,0.145222
1025.0179,0.146401
1026.8816,0.147629
1028.7452,0.148924
1030.6089,0.149935
1032.4726,0.150739
1034.3362,0.151520
1036.1999,0.152282
1038.0636,0.152813
1039.9273,0.153044
1041.7909,0.153196
1043.6546,0.153265
1045.5183,0.153194
1047.3819,0.153095
1049.2456,0.153007
1051.1093,0.152990
1052.9729,0.152919
1054.8366,0.152805
1056.7003,0.152681
1058.5639,0.152637
1060.4276,0.152503
1062.2913,0.152391
1064.1550,0.152450
1066.0186,0.152485
1067.8823,0.152353
1069.7460,0.152016
1071.6096,0.151578
1073.4733,0.150874
1075.3370,0.149711
1077.2006,0.148138
1079.0643,0.146016
1080.9280,0.143478
1082.7916,0.140810
1084.6553,0.137967
1086.5190,0.135006
1088.3826,0.132402
1090.2463,0.130136
1092.1100,0.128087
1093.9737,0.126196
1095.8373,0.124468
1097.7010,0.122997
1099.5647,0.121725
1101.4283,0.120662
1103.2920,0.119824
1105.1557,0.119173
1107.0193,0.118623
1108.8830,0.118113
1110.7467,0.117763
1112.6103,0.117524
1114.4740,0.117252
1116.3377,0.116783
1118.2014,0.116169
1120.0650,0.115454
1121.9287,0.114643
1123.7924,0.113819
1125.6560,0.113028
1127.5197,0.112173
1129.3834,0.111224
1131.2470,0.110180
1133.1107,0.109028
1134.9744,0.107898
1136.8380,0.106877
1138.7017,0.105915
1140.5654,0.105143
1142.4290,0.104622
1144.2927,0.104349
1146.1564,0.104386
1148.0201,0.104617
1149.8837,0.104914
1151.7474,0.105167
1153.6111,0.105318
1155.4747,0.105437
1157.3384,0.105420
1159.2021,0.105305
1161.0657,0.105021
1162.9294,0.104490
1164.7931,0.103771
1166.6567,0.102943
1168.5204,0.101856
1170.3841,0.100570
1172.2477,0.099071
1174.1114,0.097261
1175.9751,0.095352
1177.8388,0.093721
1179.7024,0.092530
1181.5661,0.091870
1183.4298,0.091699
1185.2934,0.091870
1187.1571,0.092444
1189.0208,0.093270
1190.8844,0.094064
1192.7481,0.095089
1194.6118,0.096354
1196.4754,0.097709
1198.3391,0.099185
1200.2028,0.100779
1202.0665,0.102345
1203.9301,0.103847
1205.7938,0.105387
1207.6575,0.106695
1209.5211,0.107788
1211.3848,0.108997
1213.2485,0.110255
1215.1121,0.111621
1216.9758,0.113068
1218.8395,0.114502
1220.7031,0.116028
1222.5668,0.117442
1224.4305,0.118655
1226.2941,0.119761
1228.1578,0.120867
1230.0215,0.121742
1231.8852,0.122280
1233.7488,0.122656
1235.6125,0.122777
1237.4762,0.122555
1239.3398,0.122168
1241.2035,0.121669
1243.0672,0.120990
1244.9308,0.120093
1246.7945,0.119058
1248.6582,0.117916
1250.5218,0.116847
1252.3855,0.115842
1254.2492,0.114888
1256.1129,0.114006
1257.9765,0.113052
1259.8402,0.112186
1261.7039,0.111428
1263.5675,0.110779
1265.4312,0.110223
1267.2949,0.109686
1269.1585,0.109328
1271.0222,0.109103
1272.8859,0.108852
1274.7495,0.108530
1276.6132,0.108324
1278.4769,0.108213
1280.3405,0.108122
1282.2042,0.107979
1284.0679,0.107890
1285.9316,0.107997
1287.7952,0.107983
1289.6589,0.107961
1291.5226,0.108079
1293.3862,0.108287
1295.2499,0.108624
1297.1136,0.108960
1298.9772,0.109272
1300.8409,0.109674
1302.7046,0.110057
1304.5682,0.110386
1306.4319,0.110614
1308.2956,0.110795
1310.1592,0.110967
1312.0229,0.111231
1313.8866,0.111095
1315.7503,0.110569
1317.6139,0.110270
1319.4776,0.109980
1321.3413,0.109363
1323.2049,0.108784
1325.0686,0.108420
1326.9323,0.108217
1328.7959,0.107970
1330.6596,0.107892
1332.5233,0.107904
1334.3869,0.107814
1336.2506,0.107946
1338.1143,0.108774
1339.9780,0.109817
1341.8416,0.109644
1343.7053,0.108967
1345.5690,0.108852
1347.4326,0.108864
1349.2963,0.108967
1351.1600,0.109084
1353.0236,0.109503
1354.8873,0.110279
1356.7510,0.110792
1358.6146,0.111219
1360.4783,0.112590
1362.3420,0.115505
1364.2056,0.117796
1366.0693,0.118716
1367.9330,0.120312
1369.7967,0.121596
1371.6603,0.122233
1373.5240,0.124426
1375.3877,0.126824
1377.2513,0.127616
1379.1150,0.128565
1380.9787,0.129429
1382.8423,0.129837
1384.7060,0.130265
1386.5697,0.131986
1388.4333,0.133364
1390.2970,0.132279
1392.1607,0.131309
1394.0244,0.132159
1395.8880,0.133153
1397.7517,0.132890
1399.6154,0.132842
1401.4790,0.131532
1403.3427,0.130353
1405.2064,0.130221
1407.0700,0.129158
1408.9337,0.127691
1410.7974,0.126726
1412.6610,0.125465
1414.5247,0.123586
1416.3884,0.122477
1418.2520,0.123961
1420.1157,0.125362
1421.9794,0.123799
1423.8431,0.123581
1425.7067,0.123697
1427.5704,0.123658
1429.4341,0.125551
1431.2977,0.127043
1433.1614,0.127050
1435.0251,0.128890
1436.8887,0.134064
1438.7524,0.135116
1440.6161,0.133993
1442.4797,0.134087
1444.3434,0.133932
1446.2071,0.134234
1448.0707,0.135056
1449.9344,0.134340
1451.7981,0.132053
1453.6618,0.129807
1455.5254,0.129546
1457.3891,0.132633
1459.2528,0.129939
1461.1164,0.125230
1462.9801,0.123119
1464.8438,0.123845
1466.7074,0.122335
1468.5711,0.118638
1470.4348,0.116313
1472.2984,0.117156
1474.1621,0.117115
1476.0258,0.115914
1477.8895,0.115119
1479.7531,0.114906
1481.6168,0.116493
1483.4805,0.117493
1485.3441,0.118910
1487.2078,0.123156
1489.0715,0.130056
1490.9351,0.135826
1492.7988,0.137021
1494.6625,0.139504
1496.5261,0.147207
1498.3898,0.153719
1500.2535,0.156474
1502.1171,0.157040
1503.9808,0.157944
1505.8445,0.165827
1507.7082,0.178972
1509.5718,0.179955
1511.4355,0.180224
1513.2992,0.181795
1515.1628,0.182856
1517.0265,0.184374
1518.8902,0.184300
1520.7538,0.184391
1522.6175,0.187168
1524.4812,0.186608
1526.3448,0.187074
1528.2085,0.187220
1530.0722,0.186255
1531.9359,0.185410
1533.7995,0.186268
1535.6632,0.185068
1537.5269,0.181592
1539.3905,0.180761
1541.2542,0.182279
1543.1179,0.180040
1544.9815,0.176914
1546.8452,0.173301
1548.7089,0.168930
1550.5725,0.164863
1552.4362,0.160571
1554.2999,0.155430
1556.1635,0.150961
1558.0272,0.148150
1559.8909,0.147539
1561.7546,0.142843
1563.6182,0.138003
1565.4819,0.134276
1567.3456,0.131525
1569.2092,0.129801
1571.0729,0.127720
1572.9366,0.124481
1574.8002,0.123047
1576.6639,0.123755
1578.5276,0.122423
1580.3912,0.120794
1582.2549,0.120344
1584.1186,0.120578
1585.9822,0.121415
1587.8459,0.122447
1589.7096,0.123896
1591.5733,0.125925
1593.4369,0.128586
1595.3006,0.131715
1597.1643,0.134580
1599.0279,0.137712
1600.8916,0.141556
1602.7553,0.145977
1604.6189,0.150676
1606.4826,0.155486
1608.3463,0.160877
1610.2099,0.166103
1612.0736,0.170066
1613.9373,0.173549
1615.8010,0.179140
1617.6646,0.186583
1619.5283,0.189138
1621.3920,0.190909
1623.2556,0.195493
1625.1193,0.199224
1626.9830,0.200434
1628.8466,0.202096
1630.7103,0.202590
1632.5740,0.201484
1634.4376,0.199876
1636.3013,0.200628
1638.1650,0.200186
1640.0286,0.197070
1641.8923,0.194199
1643.7560,0.190785
1645.6197,0.187073
1647.4833,0.184339
1649.3470,0.181444
1651.2107,0.175971
1653.0743,0.170585
1654.9380,0.167814
1656.8017,0.162829
1658.6653,0.157061
1660.5290,0.151500
1662.3927,0.145722
1664.2563,0.140792
1666.1200,0.135482
1667.9837,0.130083
1669.8474,0.125130
1671.7110,0.120623
1673.5747,0.115353
1675.4384,0.110197
1677.3020,0.105998
1679.1657,0.101421
1681.0294,0.096339
1682.8930,0.091035
1684.7567,0.085717
1686.6204,0.081393
1688.4840,0.076520
1690.3477,0.071458
1692.2114,0.066345
1694.0750,0.061117
1695.9387,0.055298
1697.8024,0.050570
1699.6661,0.046113
1701.5297,0.042307
1703.3934,0.039031
1705.2571,0.036185
1707.1207,0.033903
1708.9844,0.032087
1710.8481,0.030284
1712.7117,0.028732
1714.5754,0.027460
1716.4391,0.026871
1718.3027,0.026090
1720.1664,0.025138
1722.0301,0.024032
1723.8937,0.023377
1725.7574,0.022923
1727.6211,0.022414
1729.4848,0.021640
1731.3484,0.021205
1733.2121,0.020994
1735.0758,0.021110
1736.9394,0.020386
1738.8031,0.019738
1740.6668,0.019462
1742.5304,0.019163
1744.3941,0.018557
1746.2578,0.018031
1748.1214,0.017479
1749.9851,0.016905
1751.8488,0.016091
1753.7125,0.015348
1755.5761,0.014673
1757.4398,0.014353
1759.3035,0.013849
1761.1671,0.013557
1763.0308,0.013505
1764.8945,0.013187
1766.7581,0.012768
1768.6218,0.012587
1770.4855,0.012452
1772.3491,0.012653
1774.2128,0.012446
1776.0765,0.012203
1777.9401,0.012040
1779.8038,0.012032
1781.6675,0.012047
1783.5312,0.012052
1785.3948,0.011972
1787.2585,0.011830
1789.1222,0.011693
1790.9858,0.011869
1792.8495,0.012063
1794.7132,0.011875
1796.5768,0.011608
1798.4405,0.011493
1800.3042,0.011389
1802.1678,0.011463
1804.0315,0.011311
1805.8952,0.011128
1807.7589,0.010988
1809.6225,0.010870
1811.4862,0.010912
1813.3499,0.011012
1815.2135,0.010716
1817.0772,0.010606
1818.9409,0.010761
1820.8045,0.010734
1822.6682,0.010545
1824.5319,0.010831
1826.3955,0.011038
1828.2592,0.010983
1830.1229,0.011036
1831.9865,0.011001
1833.8502,0.010708
1835.7139,0.010764
1837.5776,0.010689
1839.4412,0.010566
1841.3049,0.010692
1843.1686,0.011092
1845.0322,0.011274
1846.8959,0.010919
1848.7596,0.010538
1850.6232,0.010375
1852.4869,0.010460
1854.3506,0.010753
1856.2142,0.010693
1858.0779,0.010666
1859.9416,0.010462
1861.8052,0.010457
1863.6689,0.010457
1865.5326,0.010589
1867.3963,0.010789
1869.2599,0.010946
1871.1236,0.010682
1872.9873,0.010553
1874.8509,0.010617
1876.7146,0.010703
1878.5783,0.010969
1880.4419,0.011122
1882.3056,0.010841
1884.1693,0.010956
1886.0329,0.011135
1887.8966,0.010552
1889.7603,0.010473
1891.6240,0.011141
1893.4876,0.010710
1895.3513,0.010080
1897.2150,0.010422
1899.0786,0.010577
1900.9423,0.010368
1902.8060,0.010662
1904.6696,0.010552
1906.5333,0.010227
1908.3970,0.010533
1910.2606,0.011075
1912.1243,0.010848
1913.9880,0.010259
1915.8516,0.010053
1917.7153,0.010884
1919.5790,0.011223
1921.4427,0.011194
1923.3063,0.010779
1925.1700,0.010032
1927.0337,0.009929
1928.8973,0.009788
1930.7610,0.009276
1932.6247,0.009884
1934.4883,0.010444
1936.3520,0.010392
1938.2157,0.010185
1940.0793,0.010201
1941.9430,0.010333
1943.8067,0.010301
1945.6704,0.010045
1947.5340,0.010719
1949.3977,0.010196
1951.2614,0.008982
1953.1250,0.008504
1954.9887,0.009476
1956.8524,0.010665
1958.7160,0.009719
1960.5797,0.009051
1962.4434,0.009560
1964.3070,0.010250
1966.1707,0.010570
1968.0344,0.010575
1969.8980,0.010290
1971.7617,0.008612
1973.6254,0.008437
1975.4891,0.010568
1977.3527,0.012195
1979.2164,0.014092
1981.0801,0.014693
1982.9437,0.013446
1984.8074,0.012984
1986.6711,0.011945
1988.5347,0.010803
1990.3984,0.011811
1992.2621,0.012544
1994.1257,0.011692
1995.9894,0.011665
1997.8531,0.011339
1999.7167,0.011094
2001.5804,0.010849
2003.4441,0.010584
2005.3078,0.011167
2007.1714,0.012059
2009.0351,0.012632
2010.8988,0.012749
2012.7624,0.012293
2014.6261,0.013150
2016.4898,0.014136
2018.3534,0.013231
2020.2171,0.012536
2022.0808,0.012250
2023.9444,0.012609
2025.8081,0.012985
2027.6718,0.012412
2029.5355,0.012930
2031.3991,0.013315
2033.2628,0.013773
2035.1265,0.015333
2036.9901,0.016764
2038.8538,0.016876
2040.7175,0.016420
2042.5811,0.016599
2044.4448,0.017084
2046.3085,0.017381
2048.1721,0.018252
2050.0358,0.019220
2051.8995,0.019284
2053.7631,0.018691
2055.6268,0.018479
2057.4905,0.018501
2059.3542,0.017891
2061.2178,0.017191
2063.0815,0.017390
2064.9452,0.017966
2066.8088,0.018137
2068.6725,0.017662
2070.5362,0.016959
2072.3998,0.017008
2074.2635,0.017313
2076.1272,0.016924
2077.9908,0.016681
2079.8545,0.016247
2081.7182,0.015999
2083.5819,0.015596
2085.4455,0.015220
2087.3092,0.015669
2089.1729,0.016183
2091.0365,0.015669
2092.9002,0.014762
2094.7639,0.014622
2096.6275,0.014871
2098.4912,0.014832
2100.3549,0.015152
2102.2185,0.015824
2104.0822,0.016075
2105.9459,0.015301
2107.8095,0.015011
2109.6732,0.015855
2111.5369,0.016093
2113.4006,0.015627
2115.2642,0.015345
2117.1279,0.015169
2118.9916,0.014896
2120.8552,0.014391
2122.7189,0.014302
2124.5826,0.014407
2126.4462,0.013890
2128.3099,0.012620
2130.1736,0.011653
2132.0372,0.011677
2133.9009,0.012288
2135.7646,0.012886
2137.6282,0.013382
2139.4919,0.013046
2141.3556,0.012499
2143.2193,0.012946
2145.0829,0.013634
2146.9466,0.013766
2148.8103,0.013180
2150.6739,0.012224
2152.5376,0.012209
2154.4013,0.012633
2156.2649,0.012545
2158.1286,0.013641
2159.9923,0.016252
2161.8559,0.018439
2163.7196,0.019375
2165.5833,0.018736
2167.4470,0.017503
2169.3106,0.016394
2171.1743,0.015450
2173.0380,0.015431
2174.9016,0.016130
2176.7653,0.016551
2178.6290,0.016078
2180.4926,0.015979
2182.3563,0.016980
2184.2200,0.017020
2186.0836,0.016331
2187.9473,0.016837
2189.8110,0.017407
2191.6746,0.017082
2193.5383,0.016685
2195.4020,0.016516
2197.2657,0.016429
2199.1293,0.016491
2200.9930,0.016477
2202.8567,0.016329
2204.7203,0.016629
2206.5840,0.017034
2208.4477,0.016420
2210.3113,0.015814
2212.1750,0.016341
2214.0387,0.017369
2215.9023,0.017633
2217.7660,0.017642
2219.6297,0.017962
2221.4934,0.018352
2223.3570,0.017980
2225.2207,0.016943
2227.0844,0.016714
2228.9480,0.016260
2230.8117,0.016214
2232.6754,0.016817
2234.5390,0.016732
2236.4027,0.016994
2238.2664,0.017576
2240.1300,0.017908
2241.9937,0.017975
2243.8574,0.017843
2245.7210,0.017867
2247.5847,0.017655
2249.4484,0.017468
2251.3121,0.017442
2253.1757,0.017316
2255.0394,0.017827
2256.9031,0.018436
2258.7667,0.018263
2260.6304,0.018114
2262.4941,0.017994
2264.3577,0.017322
2266.2214,0.017257
2268.0851,0.018372
2269.9487,0.019023
2271.8124,0.018775
2273.6761,0.018644
2275.5397,0.018782
2277.4034,0.019062
2279.2671,0.019317
2281.1308,0.019625
2282.9944,0.019924
2284.8581,0.019856
2286.7218,0.019467
2288.5854,0.019306
2290.4491,0.019517
2292.3128,0.019485
2294.1764,0.018962
2296.0401,0.018664
2297.9038,0.018717
2299.7674,0.018449
2301.6311,0.018389
2303.4948,0.018581
2305.3585,0.018658
2307.2221,0.018844
2309.0858,0.019057
2310.9495,0.019180
2312.8131,0.019441
2314.6768,0.019639
2316.5405,0.019271
2318.4041,0.019072
2320.2678,0.019614
2322.1315,0.020458
2323.9951,0.020993
2325.8588,0.020052
2327.7225,0.018114
2329.5861,0.017591
2331.4498,0.018249
2333.3135,0.018331
2335.1772,0.018237
2337.0408,0.018598
2338.9045,0.019113
2340.7682,0.020073
2342.6318,0.020974
2344.4955,0.020549
2346.3592,0.019246
2348.2228,0.017836
2350.0865,0.016764
2351.9502,0.016336
2353.8138,0.016490
2355.6775,0.017195
2357.5412,0.018430
2359.4049,0.019826
2361.2685,0.020441
2363.1322,0.020343
2364.9959,0.020724
2366.8595,0.021369
2368.7232,0.021621
2370.5869,0.021735
2372.4505,0.021635
2374.3142,0.021616
2376.1779,0.021325
2378.0415,0.020521
2379.9052,0.019851
2381.7689,0.019543
2383.6325,0.019330
2385.4962,0.019160
2387.3599,0.019117
2389.2236,0.019068
2391.0872,0.018929
2392.9509,0.018779
2394.8146,0.018833
2396.6782,0.019019
2398.5419,0.019015
2400.4056,0.019045
2402.2692,0.019284
2404.1329,0.019470
2405.9966,0.019492
2407.8602,0.019632
2409.7239,0.019824
2411.5876,0.019967
2413.4512,0.020252
2415.3149,0.020386
2417.1786,0.020256
2419.0423,0.020192
2420.9059,0.020109
2422.7696,0.020217
2424.6333,0.020428
2426.4969,0.020390
2428.3606,0.020197
2430.2243,0.020500
2432.0879,0.020920
2433.9516,0.020919
2435.8153,0.021136
2437.6789,0.021478
2439.5426,0.021517
2441.4063,0.021366
2443.2700,0.021300
2445.1336,0.021513
2446.9973,0.021491
2448.8610,0.021589
2450.7246,0.021949
2452.5883,0.021943
2454.4520,0.022040
2456.3156,0.022281
2458.1793,0.022123
2460.0430,0.022061
2461.9066,0.022037
2463.7703,0.022051
2465.6340,0.022345
2467.4976,0.022453
2469.3613,0.022616
2471.2250,0.022703
2473.0887,0.022484
2474.9523,0.022469
2476.8160,0.022717
2478.6797,0.023011
2480.5433,0.022927
2482.4070,0.022870
2484.2707,0.023210
2486.1343,0.023341
2487.9980,0.023080
2489.8617,0.023146
2491.7253,0.023315
2493.5890,0.023340
2495.4527,0.023625
2497.3164,0.023700
2499.1800,0.023269
2501.0437,0.023402
2502.9074,0.024001
2504.7710,0.024234
2506.6347,0.024378
2508.4984,0.024286
2510.3620,0.024058
2512.2257,0.024071
2514.0894,0.024335
2515.9530,0.024743
2517.8167,0.024770
2519.6804,0.024625
2521.5440,0.024327
2523.4077,0.024187
2525.2714,0.024608
2527.1351,0.024926
2528.9987,0.025006
2530.8624,0.025174
2532.7261,0.025327
2534.5897,0.025185
2536.4534,0.025129
2538.3171,0.025392
2540.1807,0.025516
2542.0444,0.025575
2543.9081,0.025556
2545.7717,0.025575
2547.6354,0.025918
2549.4991,0.026297
2551.3627,0.026464
2553.2264,0.026238
2555.0901,0.026328
2556.9538,0.026452
2558.8174,0.026621
2560.6811,0.026813
2562.5448,0.026771
2564.4084,0.026999
2566.2721,0.027127
2568.1358,0.027104
2569.9994,0.027347
2571.8631,0.027444
2573.7268,0.027239
2575.5904,0.027328
2577.4541,0.027567
2579.3178,0.027907
2581.1815,0.028351
2583.0451,0.028495
2584.9088,0.028101
2586.7725,0.027963
2588.6361,0.028306
2590.4998,0.028647
2592.3635,0.028529
2594.2271,0.028579
2596.0908,0.029051
2597.9545,0.029442
2599.8181,0.029435
2601.6818,0.029541
2603.5455,0.029951
2605.4091,0.030269
2607.2728,0.030538
2609.1365,0.030534
2611.0002,0.030523
2612.8638,0.030619
2614.7275,0.030735
2616.5912,0.030983
2618.4548,0.031008
2620.3185,0.030964
2622.1822,0.031405
2624.0458,0.031908
2625.9095,0.032041
2627.7732,0.032153
2629.6368,0.032242
2631.5005,0.032286
2633.3642,0.032259
2635.2279,0.032247
2637.0915,0.032446
2638.9552,0.032753
2640.8189,0.033098
2642.6825,0.033262
2644.5462,0.033295
2646.4099,0.033290
2648.2735,0.033418
2650.1372,0.033726
2652.0009,0.033785
2653.8645,0.033674
2655.7282,0.033651
2657.5919,0.033707
2659.4555,0.033824
2661.3192,0.033783
2663.1829,0.033673
2665.0466,0.033720
2666.9102,0.033722
2668.7739,0.033799
2670.6376,0.034116
2672.5012,0.034263
2674.3649,0.034186
2676.2286,0.034229
2678.0922,0.034292
2679.9559,0.034285
2681.8196,0.034369
2683.6832,0.034779
2685.5469,0.035070
2687.4106,0.034990
2689.2742,0.035071
2691.1379,0.035191
2693.0016,0.035374
2694.8653,0.035554
2696.7289,0.035633
2698.5926,0.035831
2700.4563,0.035985
2702.3199,0.036224
2704.1836,0.036444
2706.0473,0.036560
2707.9109,0.036642
2709.7746,0.036782
2711.6383,0.036949
2713.5019,0.037127
2715.3656,0.037664
2717.2293,0.038162
2719.0930,0.038283
2720.9566,0.038333
2722.8203,0.038456
2724.6840,0.038701
2726.5476,0.038866
2728.4113,0.038988
2730.2750,0.039237
2732.1386,0.039636
2734.0023,0.039925
2735.8660,0.039989
2737.7296,0.040010
2739.5933,0.040351
2741.4570,0.040741
2743.3206,0.040946
2745.1843,0.041014
2747.0480,0.041092
2748.9117,0.041345
2750.7753,0.041703
2752.6390,0.041864
2754.5027,0.042085
2756.3663,0.042323
2758.2300,0.042670
2760.0937,0.042919
2761.9573,0.043064
2763.8210,0.043454
2765.6847,0.043752
2767.5483,0.043793
2769.4120,0.044032
2771.2757,0.044324
2773.1394,0.044512
2775.0030,0.044738
2776.8667,0.044955
2778.7304,0.045195
2780.5940,0.045483
2782.4577,0.045730
2784.3214,0.046104
2786.1850,0.046533
2788.0487,0.046780
2789.9124,0.046937
2791.7760,0.047240
2793.6397,0.047695
2795.5034,0.048026
2797.3670,0.048050
2799.2307,0.048270
2801.0944,0.048638
2802.9581,0.049108
2804.8217,0.049558
2806.6854,0.049888
2808.5491,0.050080
2810.4127,0.050302
2812.2764,0.050484
2814.1401,0.050667
2816.0037,0.050987
2817.8674,0.051449
2819.7311,0.052063
2821.5947,0.052567
2823.4584,0.052919
2825.3221,0.053218
2827.1857,0.053641
2829.0494,0.054195
2830.9131,0.054640
2832.7768,0.055120
2834.6404,0.055868
2836.5041,0.056469
2838.3678,0.057009
2840.2314,0.057864
2842.0951,0.058804
2843.9588,0.060075
2845.8224,0.061686
2847.6861,0.063202
2849.5498,0.064273
2851.4134,0.065037
2853.2771,0.065549
2855.1408,0.065681
2857.0045,0.065158
2858.8681,0.064944
2860.7318,0.065144
2862.5955,0.065282
2864.4591,0.065620
2866.3228,0.066571
2868.1865,0.067533
2870.0501,0.068012
2871.9138,0.068212
2873.7775,0.068369
2875.6411,0.068309
2877.5048,0.068142
2879.3685,0.067875
2881.2321,0.067965
2883.0958,0.068058
2884.9595,0.068181
2886.8232,0.068162
2888.6868,0.068316
2890.5505,0.068490
2892.4142,0.068850
2894.2778,0.069564
2896.1415,0.070172
2898.0052,0.070623
2899.8688,0.071360
2901.7325,0.072068
2903.5962,0.072802
2905.4598,0.073730
2907.3235,0.074837
2909.1872,0.075591
2911.0509,0.076526
2912.9145,0.077888
2914.7782,0.079310
2916.6419,0.080421
2918.5055,0.081609
2920.3692,0.082458
2922.2329,0.082902
2924.0965,0.083072
2925.9602,0.083246
2927.8239,0.082905
2929.6875,0.082595
2931.5512,0.082096
2933.4149,0.081438
2935.2785,0.080227
2937.1422,0.079233
2939.0059,0.078605
2940.8696,0.077679
2942.7332,0.076636
2944.5969,0.076248
2946.4606,0.075984
2948.3242,0.075748
2950.1879,0.075879
2952.0516,0.076255
2953.9152,0.076367
2955.7789,0.076475
2957.6426,0.076635
2959.5062,0.076605
2961.3699,0.076250
2963.2336,0.076056
2965.0972,0.075199
2966.9609,0.074158
2968.8246,0.073394
2970.6883,0.072538
2972.5519,0.071551
2974.4156,0.070615
2976.2793,0.069541
2978.1429,0.068764
2980.0066,0.067914
2981.8703,0.066877
2983.7339,0.065982
2985.5976,0.065440
2987.4613,0.065078
2989.3249,0.064968
2991.1886,0.064535
2993.0523,0.064116
2994.9160,0.063791
2996.7796,0.063444
2998.6433,0.063415
3000.5070,0.063730
3002.3706,0.063892
3004.2343,0.064053
3006.0980,0.064193
3007.9616,0.064594
3009.8253,0.065070
3011.6890,0.065763
3013.5526,0.066138
3015.4163,0.066050
3017.2800,0.066096
3019.1436,0.066481
3021.0073,0.066901
3022.8710,0.067529
3024.7347,0.067898
3026.5983,0.068495
3028.4620,0.069351
3030.3257,0.069850
3032.1893,0.070157
3034.0530,0.070558
3035.9167,0.070687
3037.7803,0.071492
3039.6440,0.072371
3041.5077,0.072952
3043.3713,0.073151
3045.2350,0.073129
3047.0987,0.073396
3048.9624,0.074369
3050.8260,0.074895
3052.6897,0.075112
3054.5534,0.075267
3056.4170,0.075483
3058.2807,0.075623
3060.1444,0.076072
3062.0080,0.076420
3063.8717,0.076764
3065.7354,0.076940
3067.5990,0.076797
3069.4627,0.076502
3071.3264,0.076817
3073.1900,0.077194
3075.0537,0.077320
3076.9174,0.077192
3078.7811,0.076951
3080.6447,0.076751
3082.5084,0.076631
3084.3721,0.076276
3086.2357,0.076108
3088.0994,0.076078
3089.9631,0.075997
3091.8267,0.075437
3093.6904,0.075512
3095.5541,0.075911
3097.4177,0.076030
3099.2814,0.075815
3101.1451,0.076286
3103.0087,0.076381
3104.8724,0.076247
3106.7361,0.076327
3108.5998,0.076572
3110.4634,0.076523
3112.3271,0.076934
3114.1908,0.077313
3116.0544,0.077251
3117.9181,0.077339
3119.7818,0.077580
3121.6454,0.077249
3123.5091,0.077466
3125.3728,0.078107
3127.2364,0.079014
3129.1001,0.079483
3130.9638,0.079900
3132.8275,0.080343
3134.6911,0.080899
3136.5548,0.081658
3138.4185,0.082288
3140.2821,0.082387
3142.1458,0.082615
3144.0095,0.083237
3145.8731,0.084301
3147.7368,0.084644
3149.6005,0.085374
3151.4641,0.086086
3153.3278,0.086910
3155.1915,0.087192
3157.0551,0.087365
3158.9188,0.088191
3160.7825,0.089050
3162.6462,0.089350
3164.5098,0.089955
3166.3735,0.090540
3168.2372,0.091364
3170.1008,0.092117
3171.9645,0.092749
3173.8282,0.093175
3175.6918,0.093513
3177.5555,0.094116
3179.4192,0.094995
3181.2828,0.095569
3183.1465,0.096415
3185.0102,0.096985
3186.8739,0.097470
3188.7375,0.097951
3190.6012,0.098393
3192.4649,0.098335
3194.3285,0.099160
3196.1922,0.099794
3198.0559,0.100011
3199.9195,0.099826
3201.7832,0.100307
3203.6469,0.100822
3205.5105,0.101047
3207.3742,0.100861
3209.2379,0.100917
3211.1015,0.101277
3212.9652,0.101639
3214.8289,0.101998
3216.6926,0.102893
3218.5562,0.103080
3220.4199,0.103199
3222.2836,0.103210
3224.1472,0.103677
3226.0109,0.104482
3227.8746,0.104675
3229.7382,0.104439
3231.6019,0.104870
3233.4656,0.105216
3235.3292,0.106071
3237.1929,0.106450
3239.0566,0.106690
3240.9202,0.107014
3242.7839,0.107851
3244.6476,0.108519
3246.5113,0.108764
3248.3749,0.108856
3250.2386,0.109034
3252.1023,0.109154
3253.9659,0.109851
3255.8296,0.110541
3257.6933,0.110561
3259.5569,0.110854
3261.4206,0.111464
3263.2843,0.112001
3265.1479,0.112777
3267.0116,0.112889
3268.8753,0.112967
3270.7390,0.112541
3272.6026,0.112309
3274.4663,0.112301
3276.3300,0.112258
3278.1936,0.111872
3280.0573,0.112091
3281.9210,0.112050
3283.7846,0.111648
3285.6483,0.110949
3287.5120,0.110231
3289.3756,0.109738
3291.2393,0.109814
3293.1030,0.109120
3294.9666,0.108441
3296.8303,0.108069
3298.6940,0.107543
3300.5577,0.106170
3302.4213,0.105094
3304.2850,0.104265
3306.1487,0.103992
3308.0123,0.103437
3309.8760,0.102601
3311.7397,0.101302
3313.6033,0.100440
3315.4670,0.100158
3317.3307,0.099863
3319.1943,0.099148
3321.0580,0.098539
3322.9217,0.097711
3324.7854,0.097355
3326.6490,0.096519
3328.5127,0.095825
3330.3764,0.095158
3332.2400,0.094146
3334.1037,0.093309
3335.9674,0.092884
3337.8310,0.092639
3339.6947,0.092362
3341.5584,0.091550
3343.4220,0.091294
3345.2857,0.090443
3347.1494,0.089630
3349.0130,0.089121
3350.8767,0.089068
3352.7404,0.088644
3354.6041,0.087795
3356.4677,0.087008
3358.3314,0.086526
3360.1951,0.086365
3362.0587,0.086148
3363.9224,0.084791
3365.7861,0.084183
3367.6497,0.084070
3369.5134,0.083383
3371.3771,0.082170
3373.2407,0.081890
3375.1044,0.081722
3376.9681,0.081213
3378.8317,0.080291
3380.6954,0.079953
3382.5591,0.079976
3384.4228,0.079508
3386.2864,0.078399
3388.1501,0.078251
3390.0138,0.077698
3391.8774,0.076993
3393.7411,0.076842
3395.6048,0.076269
3397.4684,0.075490
3399.3321,0.075653
3401.1958,0.075666
3403.0594,0.074700
3404.9231,0.073980
3406.7868,0.073774
3408.6505,0.073426
3410.5141,0.073274
3412.3778,0.072166
3414.2415,0.071368
3416.1051,0.071240
3417.9688,0.071170
3419.8325,0.070381
3421.6961,0.069958
3423.5598,0.069377
3425.4235,0.068440
3427.2871,0.067562
3429.1508,0.066974
3431.0145,0.067067
3432.8781,0.067243
3434.7418,0.066486
3436.6055,0.065793
3438.4692,0.065039
3440.3328,0.064371
3442.1965,0.063620
3444.0602,0.063151
3445.9238,0.063018
3447.7875,0.063284
3449.6512,0.063093
3451.5148,0.062071
3453.3785,0.060737
3455.2422,0.060497
3457.1058,0.060867
3458.9695,0.060444
3460.8332,0.059281
3462.6969,0.058320
3464.5605,0.057621
3466.4242,0.057325
3468.2879,0.057254
3470.1515,0.056797
3472.0152,0.055608
3473.8789,0.054778
3475.7425,0.054350
3477.6062,0.053894
3479.4699,0.053263
3481.3335,0.052243
3483.1972,0.051707
3485.0609,0.051247
3486.9245,0.050302
3488.7882,0.050196
3490.6519,0.050513
3492.5156,0.049897
3494.3792,0.048718
3496.2429,0.047750
3498.1066,0.047456
3499.9702,0.047075
3501.8339,0.046348
3503.6976,0.046156
3505.5612,0.045720
3507.4249,0.044462
3509.2886,0.043825
3511.1522,0.043680
3513.0159,0.042971
3514.8796,0.042331
3516.7432,0.041813
3518.6069,0.041317
3520.4706,0.041165
3522.3343,0.040863
3524.1979,0.039501
3526.0616,0.038548
3527.9253,0.038513
3529.7889,0.038469
3531.6526,0.038106
3533.5163,0.037021
3535.3799,0.035905
3537.2436,0.035354
3539.1073,0.034705
3540.9709,0.033837
3542.8346,0.032838
3544.6983,0.032383
3546.5620,0.032227
3548.4256,0.032286
3550.2893,0.031411
3552.1530,0.030365
3554.0166,0.030021
3555.8803,0.029886
3557.7440,0.028963
3559.6076,0.027833
3561.4713,0.027298
3563.3350,0.026204
3565.1986,0.025326
3567.0623,0.025475
3568.9260,0.025751
3570.7896,0.025132
3572.6533,0.024143
3574.5170,0.023829
3576.3807,0.023454
3578.2443,0.022644
3580.1080,0.022012
3581.9717,0.021624
3583.8353,0.021062
3585.6990,0.020551
3587.5627,0.020108
3589.4263,0.019738
3591.2900,0.018967
3593.1537,0.018115
3595.0173,0.017899
3596.8810,0.017519
3598.7447,0.016938
3600.6084,0.016604
3602.4720,0.016269
3604.3357,0.015745
3606.1994,0.014973
3608.0630,0.014530
3609.9267,0.014301
3611.7904,0.013568
3613.6540,0.012843
3615.5177,0.012165
3617.3814,0.011926
3619.2450,0.012096
3621.1087,0.011804
3622.9724,0.011044
3624.8360,0.010239
3626.6997,0.009789
3628.5634,0.009332
3630.4271,0.008682
3632.2907,0.008823
3634.1544,0.008854
3636.0181,0.008216
3637.8817,0.008057
3639.7454,0.008251
3641.6091,0.007513
3643.4727,0.006589
3645.3364,0.006353
3647.2001,0.006229
3649.0637,0.005505
3650.9274,0.004303
3652.7911,0.004103
3654.6547,0.004231
3656.5184,0.004042
3658.3821,0.003794
3660.2458,0.003369
3662.1094,0.003129
3663.9731,0.003247
3665.8368,0.003391
3667.7004,0.003061
3669.5641,0.002315
3671.4278,0.001702
3673.2914,0.001136
3675.1551,0.000358
3677.0188,0.000511
3678.8824,0.000681
3680.7461,0.000616
3682.6098,0.000724
3684.4735,0.000485
3686.3371,0.000060
3688.2008,-0.000233
3690.0645,-0.000362
3691.9281,-0.000298
3693.7918,-0.000075
3695.6555,0.000021
3697.5191,-0.000015
3699.3828,-0.000125
3701.2465,-0.000318
3703.1101,-0.000231
3704.9738,-0.000155
3706.8375,-0.000482
3708.7011,-0.000971
3710.5648,-0.001262
3712.4285,-0.000789
3714.2922,-0.000402
3716.1558,-0.000687
3718.0195,-0.000925
3719.8832,-0.000667
3721.7468,-0.000658
3723.6105,-0.001135
3725.4742,-0.000998
3727.3378,-0.001051
3729.2015,-0.001344
3731.0652,-0.001045
3732.9288,-0.000877
3734.7925,-0.001199
3736.6562,-0.001221
3738.5199,-0.000951
3740.3835,-0.000902
3742.2472,-0.001012
3744.1109,-0.000969
3745.9745,-0.000873
3747.8382,-0.000793
3749.7019,-0.001209
3751.5655,-0.001813
3753.4292,-0.001145
3755.2929,-0.000673
3757.1565,-0.000900
3759.0202,-0.000680
3760.8839,-0.000163
3762.7475,-0.000062
3764.6112,-0.000333
3766.4749,-0.000760
3768.3386,-0.000831
3770.2022,-0.000426
3772.0659,-0.000395
3773.9296,-0.000619
3775.7932,-0.000516
3777.6569,-0.000307
3779.5206,-0.000280
3781.3842,-0.000148
3783.2479,-0.000156
3785.1116,-0.000568
3786.9752,-0.000469
3788.8389,-0.000224
3790.7026,-0.000393
3792.5662,-0.000400
3794.4299,-0.000274
3796.2936,-0.000135
3798.1573,-0.000142
3800.0209,-0.000576
3801.8846,-0.001041
3803.7483,-0.000745
3805.6119,-0.000532
3807.4756,-0.000755
3809.3393,-0.000545
3811.2029,-0.000277
3813.0666,-0.000183
3814.9303,-0.000204
3816.7939,-0.000589
3818.6576,-0.000764
3820.5213,-0.000629
3822.3850,-0.000402
3824.2486,-0.000284
3826.1123,-0.000542
3827.9760,-0.000878
3829.8396,-0.000841
3831.7033,-0.000494
3833.5670,-0.000332
3835.4306,-0.000463
3837.2943,-0.000683
3839.1580,-0.000589
3841.0216,-0.000504
3842.8853,-0.000529
3844.7490,-0.000302
3846.6126,-0.000138
3848.4763,-0.000105
3850.3400,-0.000092
3852.2037,-0.000294
3854.0673,-0.000323
3855.9310,-0.000448
3857.7947,-0.000693
3859.6583,-0.000549
3861.5220,-0.000426
3863.3857,-0.000408
3865.2493,-0.000143
3867.1130,-0.000083
3868.9767,-0.000097
3870.8403,0.000132
3872.7040,0.000257
3874.5677,0.000092
3876.4314,-0.000024
3878.2950,-0.000056
3880.1587,0.000021
3882.0224,0.000070
3883.8860,0.000046
3885.7497,-0.000096
3887.6134,0.000063
3889.4770,0.000144
3891.3407,-0.000014
3893.2044,0.000318
3895.0680,0.000836
3896.9317,0.000755
3898.7954,0.000466
3900.6590,0.000412
3902.5227,0.000470
3904.3864,0.000504
3906.2501,0.000566
3908.1137,0.000439
3909.9774,0.000295
3911.8411,0.000255
3913.7047,0.000240
3915.5684,0.000531
3917.4321,0.000896
3919.2957,0.000861
3921.1594,0.000792
3923.0231,0.000680
3924.8867,0.000751
3926.7504,0.000917
3928.6141,0.001060
3930.4777,0.001129
3932.3414,0.000820
3934.2051,0.000797
3936.0688,0.000923
3937.9324,0.000511
3939.7961,0.000527
3941.6598,0.001108
3943.5234,0.001319
3945.3871,0.001095
3947.2508,0.000883
3949.1144,0.001086
3950.9781,0.001475
3952.8418,0.001302
3954.7054,0.000812
3956.5691,0.000573
3958.4328,0.000774
3960.2965,0.001358
3962.1601,0.001531
3964.0238,0.000958
3965.8875,0.000634
3967.7511,0.000699
3969.6148,0.000820
3971.4785,0.000842
3973.3421,0.000815
3975.2058,0.000964
3977.0695,0.001111
3978.9331,0.001088
3980.7968,0.001178
3982.6605,0.001417
3984.5241,0.001632
3986.3878,0.001451
3988.2515,0.001294
3990.1152,0.001378
3991.9788,0.001266
3993.8425,0.001127
3995.7062,0.001324
3997.5698,0.001247
3999.4335,0.001055
