Wavenumber,Intensity
650.4205,0.286302
652.2841,0.284139
654.1478,0.285457
656.0115,0.283634
657.8751,0.282034
659.7388,0.279428
661.6025,0.277141
663.4661,0.273504
665.3298,0.269291
667.1935,0.269127
669.0571,0.277068
670.9208,0.272751
672.7845,0.269826
674.6481,0.268115
676.5118,0.266695
678.3755,0.263118
680.2392,0.260296
682.1028,0.257122
683.9665,0.256363
685.8302,0.255377
687.6938,0.253237
689.5575,0.251101
691.4212,0.250583
693.2848,0.248468
695.1485,0.247282
697.0122,0.245411
698.8758,0.242874
700.7395,0.240594
702.6032,0.237733
704.4669,0.234999
706.3305,0.233475
708.1942,0.231269
710.0579,0.229397
711.9215,0.226259
713.7852,0.223232
715.6489,0.221396
717.5125,0.219464
719.3762,0.216656
721.2399,0.214273
723.1035,0.212488
724.9672,0.211324
726.8309,0.209481
728.6945,0.207342
730.5582,0.205550
732.4219,0.204334
734.2856,0.203158
736.1492,0.202051
738.0129,0.200917
739.8766,0.199947
741.7402,0.198817
743.6039,0.198051
745.4676,0.196904
747.3312,0.195069
749.1949,0.193057
751.0586,0.191265
752.9222,0.189340
754.7859,0.187734
756.6496,0.186474
758.5132,0.185245
760.3769,0.183865
762.2406,0.183038
764.1043,0.182222
765.9679,0.180771
767.8316,0.179077
769.6953,0.177521
771.5589,0.174865
773.4226,0.172999
775.2863,0.171890
777.1499,0.169717
779.0136,0.167880
780.8773,0.166800
782.7409,0.165618
784.6046,0.164189
786.4683,0.162539
788.3320,0.160999
790.1956,0.159362
792.0593,0.157671
793.9230,0.155931
795.7866,0.155257
797.6503,0.154890
799.5140,0.154019
801.3776,0.153164
803.2413,0.152685
805.1050,0.151946
806.9686,0.151330
808.8323,0.150823
810.6960,0.150374
812.5596,0.149616
814.4233,0.148332
816.2870,0.147343
818.1507,0.146377
820.0143,0.144760
821.8780,0.142600
823.7417,0.140322
825.6053,0.138389
827.4690,0.136522
829.3327,0.134713
831.1963,0.133332
833.0600,0.132066
834.9237,0.130731
836.7873,0.129597
838.6510,0.128573
840.5147,0.127586
842.3784,0.126667
844.2420,0.125941
846.1057,0.125504
847.9694,0.125265
849.8330,0.125180
851.6967,0.125028
853.5604,0.124664
855.4240,0.124502
857.2877,0.124771
859.1514,0.124912
861.0150,0.125080
862.8787,0.125745
864.7424,0.126655
866.6060,0.127636
868.4697,0.128526
870.3334,0.129206
872.1971,0.129571
874.0607,0.129606
875.9244,0.129256
877.7881,0.128377
879.6517,0.127265
881.5154,0.126177
883.3791,0.125021
885.2427,0.124103
887.1064,0.123511
888.9701,0.123217
890.8337,0.123186
892.6974,0.123307
894.5611,0.123318
896.4247,0.123147
898.2884,0.122798
900.1521,0.122298
902.0158,0.122181
903.8794,0.122368
905.7431,0.122855
907.6068,0.123644
909.4704,0.124204
911.3341,0.124745
913.1978,0.125492
915.0614,0.126346
916.9251,0.127223
918.7888,0.128184
920.6524,0.128931
922.5161,0.129203
924.3798,0.129178
926.2435,0.128783
928.1071,0.128011
929.9708,0.127500
931.8345,0.127255
933.6981,0.127402
935.5618,0.127833
937.4255,0.128332
939.2891,0.129103
941.1528,0.130094
943.0165,0.131056
944.8801,0.132024
946.7438,0.132613
948.6075,0.132716
950.4711,0.132522
952.3348,0.132368
954.1985,0.132710
956.0622,0.134097
957.9258,0.136304
959.7895,0.139006
961.6532,0.142206
963.5168,0.145834
965.3805,0.149189
967.2442,0.151817
969.1078,0.153411
970.9715,0.154286
972.8352,0.155085
974.6988,0.156002
976.5625,0.157305
978.4262,0.159198
980.2899,0.161195
982.1535,0.163371
984.0172,0.165664
985.8809,0.167847
987.7445,0.170022
989.6082,0.172373
991.4719,0.174997
993.3355,0.178023
995.1992,0.181351
997.0629,0.184663
998.9265,0.187418
1000.7902,0.189859
1002.6539,0.192641
1004.5175,0.195904
1006.3812,0.199790
1008.2449,0.204952
1010.1086,0.211161
1011.9722,0.217937
1013.8359,0.224783
1015.6996,0.231630
1017.5632,0.238086
1019.4269,0.243662
1021.2906,0.247977
1023.1542,0.251448
1025.0179,0.254355
1026.8816,0.257224
1028.7452,0.260187
1030.6089,0.262976
1032.4726,0.265212
1034.3362,0.266841
1036.1999,0.267975
1038.0636,0.268744
1039.9273,0.268782
1041.7909,0.268398
1043.6546,0.267961
1045.5183,0.267777
1047.3819,0.267731
1049.2456,0.267882
1051.1093,0.268275
1052.9729,0.268996
1054.8366,0.269657
1056.7003,0.270469
1058.5639,0.271331
1060.4276,0.271981
1062.2913,0.272469
1064.1550,0.273246
1066.0186,0.274060
1067.8823,0.274664
1069.7460,0.274932
1071.6096,0.274965
1073.4733,0.274106
1075.3370,0.272123
1077.2006,0.269054
1079.0643,0.264580
1080.9280,0.258616
1082.7916,0.251934
1084.6553,0.244806
1086.5190,0.237963
1088.3826,0.231743
1090.2463,0.226361
1092.1100,0.221911
1093.9737,0.218207
1095.8373,0.214879
1097.7010,0.211784
1099.5647,0.208765
1101.4283,0.206118
1103.2920,0.204078
1105.1557,0.202583
1107.0193,0.201461
1108.8830,0.200880
1110.7467,0.200449
1112.6103,0.199863
1114.4740,0.199104
1116.3377,0.198173
1118.2014,0.196864
1120.0650,0.195232
1121.9287,0.193377
1123.7924,0.191447
1125.6560,0.189514
1127.5197,0.187479
1129.3834,0.185256
1131.2470,0.182831
1133.1107,0.180135
1134.9744,0.177363
1136.8380,0.174584
1138.7017,0.171920
1140.5654,0.169503
1142.4290,0.167611
1144.2927,0.166353
1146.1564,0.165690
1148.0201,0.165533
1149.8837,0.165809
1151.7474,0.166109
1153.6111,0.166172
1155.4747,0.165861
1157.3384,0.165187
1159.2021,0.164020
1161.0657,0.162364
1162.9294,0.160257
1164.7931,0.157567
1166.6567,0.154307
1168.5204,0.150713
1170.3841,0.146799
1172.2477,0.142528
1174.1114,0.138218
1175.9751,0.134366
1177.8388,0.131283
1179.7024,0.129342
1181.5661,0.128492
1183.4298,0.128482
1185.2934,0.129098
1187.1571,0.130012
1189.0208,0.130944
1190.8844,0.132012
1192.7481,0.133340
1194.6118,0.135031
1196.4754,0.137123
1198.3391,0.139471
1200.2028,0.141918
1202.0665,0.144225
1203.9301,0.145958
1205.7938,0.147010
1207.6575,0.147438
1209.5211,0.147346
1211.3848,0.147068
1213.2485,0.147024
1215.1121,0.147516
1216.9758,0.148757
1218.8395,0.150747
1220.7031,0.153391
1222.5668,0.156498
1224.4305,0.160008
1226.2941,0.163646
1228.1578,0.167134
1230.0215,0.170438
1231.8852,0.173482
1233.7488,0.176143
1235.6125,0.178451
1237.4762,0.180290
1239.3398,0.181526
1241.2035,0.181917
1243.0672,0.181389
1244.9308,0.180131
1246.7945,0.178166
1248.6582,0.175797
1250.5218,0.173596
1252.3855,0.171506
1254.2492,0.169549
1256.1129,0.167813
1257.9765,0.166399
1259.8402,0.165422
1261.7039,0.164682
1263.5675,0.163901
1265.4312,0.163163
1267.2949,0.162370
1269.1585,0.161600
1271.0222,0.160874
1272.8859,0.159992
1274.7495,0.158958
1276.6132,0.158033
1278.4769,0.157220
1280.3405,0.156428
1282.2042,0.155706
1284.0679,0.155177
1285.9316,0.154856
1287.7952,0.154823
1289.6589,0.154954
1291.5226,0.155221
1293.3862,0.155812
1295.2499,0.156977
1297.1136,0.158633
1298.9772,0.160531
1300.8409,0.162490
1302.7046,0.164436
1304.5682,0.166208
1306.4319,0.167925
1308.2956,0.169719
1310.1592,0.171338
1312.0229,0.172937
1313.8866,0.174326
1315.7503,0.174831
1317.6139,0.175220
1319.4776,0.175601
1321.3413,0.175171
1323.2049,0.174376
1325.0686,0.173963
1326.9323,0.173648
1328.7959,0.173269
1330.6596,0.172962
1332.5233,0.172706
1334.3869,0.172049
1336.2506,0.171539
1338.1143,0.172571
1339.9780,0.174489
1341.8416,0.174108
1343.7053,0.172461
1345.5690,0.171436
1347.4326,0.170734
1349.2963,0.170059
1351.1600,0.169083
1353.0236,0.168015
1354.8873,0.167353
1356.7510,0.166212
1358.6146,0.164988
1360.4783,0.166093
1362.3420,0.170649
1364.2056,0.174037
1366.0693,0.175047
1367.9330,0.177994
1369.7967,0.181556
1371.6603,0.184352
1373.5240,0.190073
1375.3877,0.195778
1377.2513,0.197493
1379.1150,0.199190
1380.9787,0.201002
1382.8423,0.201897
1384.7060,0.203267
1386.5697,0.207965
1388.4333,0.212398
1390.2970,0.211505
1392.1607,0.211113
1394.0244,0.215782
1395.8880,0.221235
1397.7517,0.223401
1399.6154,0.225415
1401.4790,0.224187
1403.3427,0.223395
1405.2064,0.225226
1407.0700,0.224193
1408.9337,0.221462
1410.7974,0.219777
1412.6610,0.216746
1414.5247,0.212323
1416.3884,0.209944
1418.2520,0.213520
1420.1157,0.216077
1421.9794,0.211806
1423.8431,0.210676
1425.7067,0.211267
1427.5704,0.211538
1429.4341,0.215555
1431.2977,0.219261
1433.1614,0.220055
1435.0251,0.225192
1436.8887,0.237636
1438.7524,0.240760
1440.6161,0.238061
1442.4797,0.238238
1444.3434,0.238522
1446.2071,0.239129
1448.0707,0.240605
1449.9344,0.237534
1451.7981,0.231126
1453.6618,0.225124
1455.5254,0.224507
1457.3891,0.228829
1459.2528,0.220052
1461.1164,0.207355
1462.9801,0.200583
1464.8438,0.198557
1466.7074,0.193079
1468.5711,0.184599
1470.4348,0.179695
1472.2984,0.180899
1474.1621,0.179724
1476.0258,0.174558
1477.8895,0.169473
1479.7531,0.165451
1481.6168,0.163621
1483.4805,0.161687
1485.3441,0.160637
1487.2078,0.164714
1489.0715,0.173886
1490.9351,0.180890
1492.7988,0.180323
1494.6625,0.183159
1496.5261,0.196431
1498.3898,0.208467
1500.2535,0.211178
1502.1171,0.210638
1503.9808,0.213282
1505.8445,0.233880
1507.7082,0.268481
1509.5718,0.269734
1511.4355,0.268953
1513.2992,0.274200
1515.1628,0.280122
1517.0265,0.288504
1518.8902,0.292665
1520.7538,0.299309
1522.6175,0.309350
1524.4812,0.309253
1526.3448,0.311868
1528.2085,0.314627
1530.0722,0.313335
1531.9359,0.315047
1533.7995,0.320653
1535.6632,0.317001
1537.5269,0.312169
1539.3905,0.321652
1541.2542,0.332760
1543.1179,0.326770
1544.9815,0.320461
1546.8452,0.312465
1548.7089,0.305593
1550.5725,0.299971
1552.4362,0.291999
1554.2999,0.283896
1556.1635,0.277676
1558.0272,0.281284
1559.8909,0.285308
1561.7546,0.268192
1563.6182,0.256136
1565.4819,0.249535
1567.3456,0.244563
1569.2092,0.242506
1571.0729,0.238353
1572.9366,0.231068
1574.8002,0.229950
1576.6639,0.234848
1578.5276,0.231894
1580.3912,0.227166
1582.2549,0.226873
1584.1186,0.228237
1585.9822,0.230042
1587.8459,0.232674
1589.7096,0.236172
1591.5733,0.240558
1593.4369,0.245973
1595.3006,0.252397
1597.1643,0.258713
1599.0279,0.265041
1600.8916,0.272773
1602.7553,0.281741
1604.6189,0.290844
1606.4826,0.300463
1608.3463,0.311540
1610.2099,0.321381
1612.0736,0.328459
1613.9373,0.335726
1615.8010,0.348416
1617.6646,0.362337
1619.5283,0.364243
1621.3920,0.366493
1623.2556,0.375542
1625.1193,0.381108
1626.9830,0.382061
1628.8466,0.382808
1630.7103,0.380443
1632.5740,0.377558
1634.4376,0.378851
1636.3013,0.379856
1638.1650,0.370703
1640.0286,0.360181
1641.8923,0.352048
1643.7560,0.345650
1645.6197,0.341004
1647.4833,0.334457
1649.3470,0.324346
1651.2107,0.318129
1653.0743,0.317186
1654.9380,0.306427
1656.8017,0.292955
1658.6653,0.282591
1660.5290,0.273650
1662.3927,0.264741
1664.2563,0.253788
1666.1200,0.243093
1667.9837,0.234250
1669.8474,0.225125
1671.7110,0.214355
1673.5747,0.204587
1675.4384,0.194612
1677.3020,0.183040
1679.1657,0.172802
1681.0294,0.163012
1682.8930,0.154150
1684.7567,0.143384
1686.6204,0.131604
1688.4840,0.121921
1690.3477,0.111608
1692.2114,0.101552
1694.0750,0.092640
1695.9387,0.083036
1697.8024,0.073800
1699.6661,0.066578
1701.5297,0.058453
1703.3934,0.053418
1705.2571,0.048750
1707.1207,0.043924
1708.9844,0.040574
1710.8481,0.037816
1712.7117,0.035522
1714.5754,0.033689
1716.4391,0.031609
1718.3027,0.029413
1720.1664,0.028080
1722.0301,0.027130
1723.8937,0.025908
1725.7574,0.024859
1727.6211,0.023989
1729.4848,0.023297
1731.3484,0.022545
1733.2121,0.021146
1735.0758,0.019694
1736.9394,0.019350
1738.8031,0.018867
1740.6668,0.018291
1742.5304,0.017873
1744.3941,0.017362
1746.2578,0.016850
1748.1214,0.016368
1749.9851,0.015697
1751.8488,0.015033
1753.7125,0.014716
1755.5761,0.014465
1757.4398,0.014215
1759.3035,0.014171
1761.1671,0.013654
1763.0308,0.013247
1764.8945,0.013319
1766.7581,0.013197
1768.6218,0.013018
1770.4855,0.012842
1772.3491,0.012251
1774.2128,0.012029
1776.0765,0.012189
1777.9401,0.012324
1779.8038,0.012169
1781.6675,0.011877
1783.5312,0.011558
1785.3948,0.011315
1787.2585,0.011415
1789.1222,0.011610
1790.9858,0.011387
1792.8495,0.010926
1794.7132,0.010846
1796.5768,0.010951
1798.4405,0.010834
1800.3042,0.010507
1802.1678,0.010369
1804.0315,0.010528
1805.8952,0.010565
1807.7589,0.010467
1809.6225,0.010297
1811.4862,0.010298
1813.3499,0.010273
1815.2135,0.010146
1817.0772,0.009859
1818.9409,0.009764
1820.8045,0.009946
1822.6682,0.010080
1824.5319,0.009681
1826.3955,0.009427
1828.2592,0.009417
1830.1229,0.009189
1831.9865,0.008991
1833.8502,0.009125
1835.7139,0.009229
1837.5776,0.009050
1839.4412,0.009029
1841.3049,0.009419
1843.1686,0.009187
1845.0322,0.008684
1846.8959,0.008932
1848.7596,0.009294
1850.6232,0.009241
1852.4869,0.009102
1854.3506,0.008709
1856.2142,0.008458
1858.0779,0.008759
1859.9416,0.009024
1861.8052,0.008766
1863.6689,0.008637
1865.5326,0.008568
1867.3963,0.008298
1869.2599,0.008151
1871.1236,0.008520
1872.9873,0.008359
1874.8509,0.007981
1876.7146,0.008069
1878.5783,0.008419
1880.4419,0.008459
1882.3056,0.008551
1884.1693,0.008536
1886.0329,0.008175
1887.8966,0.007893
1889.7603,0.007787
1891.6240,0.007433
1893.4876,0.007532
1895.3513,0.007988
1897.2150,0.008297
1899.0786,0.007975
1900.9423,0.007530
1902.8060,0.007491
1904.6696,0.007643
1906.5333,0.007368
1908.3970,0.007038
1910.2606,0.007143
1912.1243,0.007544
1913.9880,0.007540
1915.8516,0.007776
1917.7153,0.007533
1919.5790,0.006635
1921.4427,0.005979
1923.3063,0.005966
1925.1700,0.006217
1927.0337,0.006337
1928.8973,0.006318
1930.7610,0.006612
1932.6247,0.006873
1934.4883,0.006698
1936.3520,0.005739
1938.2157,0.005402
1940.0793,0.005138
1941.9430,0.004779
1943.8067,0.004695
1945.6704,0.004378
1947.5340,0.003925
1949.3977,0.004332
1951.2614,0.004423
1953.1250,0.004457
1954.9887,0.004446
1956.8524,0.004098
1958.7160,0.003683
1960.5797,0.004393
1962.4434,0.004376
1964.3070,0.003685
1966.1707,0.002653
1968.0344,0.002045
1969.8980,0.001014
1971.7617,0.000182
1973.6254,0.000430
1975.4891,0.000973
1977.3527,0.000861
1979.2164,0.001410
1981.0801,0.002762
1982.9437,0.003927
1984.8074,0.003344
1986.6711,0.003072
1988.5347,0.002993
1990.3984,0.002815
1992.2621,0.003331
1994.1257,0.004063
1995.9894,0.004540
1997.8531,0.004971
1999.7167,0.004305
2001.5804,0.003444
2003.4441,0.002348
2005.3078,0.002783
2007.1714,0.003376
2009.0351,0.002785
2010.8988,0.001788
2012.7624,0.002181
2014.6261,0.003139
2016.4898,0.002554
2018.3534,0.001684
2020.2171,0.002943
2022.0808,0.004065
2023.9444,0.004598
2025.8081,0.005272
2027.6718,0.007327
2029.5355,0.007874
2031.3991,0.008717
2033.2628,0.010537
2035.1265,0.011393
2036.9901,0.013065
2038.8538,0.015690
2040.7175,0.016559
2042.5811,0.018064
2044.4448,0.020150
2046.3085,0.022462
2048.1721,0.025188
2050.0358,0.028274
2051.8995,0.029742
2053.7631,0.030557
2055.6268,0.031404
2057.4905,0.031988
2059.3542,0.032004
2061.2178,0.032307
2063.0815,0.031776
2064.9452,0.029773
2066.8088,0.028386
2068.6725,0.028362
2070.5362,0.027116
2072.3998,0.025094
2074.2635,0.023978
2076.1272,0.023396
2077.9908,0.021793
2079.8545,0.020480
2081.7182,0.019244
2083.5819,0.017060
2085.4455,0.015593
2087.3092,0.015200
2089.1729,0.013909
2091.0365,0.012567
2092.9002,0.012050
2094.7639,0.012155
2096.6275,0.012034
2098.4912,0.011810
2100.3549,0.011247
2102.2185,0.010819
2104.0822,0.010602
2105.9459,0.010161
2107.8095,0.010167
2109.6732,0.010957
2111.5369,0.011049
2113.4006,0.010842
2115.2642,0.010664
2117.1279,0.010693
2118.9916,0.010673
2120.8552,0.010832
2122.7189,0.010666
2124.5826,0.009917
2126.4462,0.008919
2128.3099,0.008524
2130.1736,0.008391
2132.0372,0.007440
2133.9009,0.006501
2135.7646,0.006586
2137.6282,0.006243
2139.4919,0.005940
2141.3556,0.005128
2143.2193,0.004101
2145.0829,0.003412
2146.9466,0.003962
2148.8103,0.003990
2150.6739,0.002985
2152.5376,0.001800
2154.4013,0.000349
2156.2649,-0.001092
2158.1286,0.000091
2159.9923,0.001404
2161.8559,0.000033
2163.7196,-0.001331
2165.5833,0.000418
2167.4470,0.002188
2169.3106,0.001886
2171.1743,0.001741
2173.0380,0.003488
2174.9016,0.004489
2176.7653,0.003853
2178.6290,0.003153
2180.4926,0.003515
2182.3563,0.003671
2184.2200,0.003922
2186.0836,0.004356
2187.9473,0.005260
2189.8110,0.006011
2191.6746,0.005302
2193.5383,0.004083
2195.4020,0.004978
2197.2657,0.006461
2199.1293,0.006211
2200.9930,0.005688
2202.8567,0.006684
2204.7203,0.007107
2206.5840,0.006510
2208.4477,0.006741
2210.3113,0.007077
2212.1750,0.006259
2214.0387,0.006158
2215.9023,0.006832
2217.7660,0.008201
2219.6297,0.008617
2221.4934,0.007921
2223.3570,0.007658
2225.2207,0.007695
2227.0844,0.007400
2228.9480,0.008225
2230.8117,0.009208
2232.6754,0.009199
2234.5390,0.008414
2236.4027,0.007848
2238.2664,0.008182
2240.1300,0.008952
2241.9937,0.009175
2243.8574,0.009694
2245.7210,0.009965
2247.5847,0.010242
2249.4484,0.010857
2251.3121,0.010961
2253.1757,0.010139
2255.0394,0.010343
2256.9031,0.010715
2258.7667,0.010502
2260.6304,0.010619
2262.4941,0.011823
2264.3577,0.011906
2266.2214,0.011914
2268.0851,0.011879
2269.9487,0.011345
2271.8124,0.011634
2273.6761,0.012636
2275.5397,0.013283
2277.4034,0.013593
2279.2671,0.013495
2281.1308,0.013665
2282.9944,0.014017
2284.8581,0.014261
2286.7218,0.013967
2288.5854,0.014039
2290.4491,0.013848
2292.3128,0.013940
2294.1764,0.014568
2296.0401,0.014792
2297.9038,0.014498
2299.7674,0.014245
2301.6311,0.014256
2303.4948,0.014540
2305.3585,0.014486
2307.2221,0.014636
2309.0858,0.014877
2310.9495,0.015008
2312.8131,0.014722
2314.6768,0.014501
2316.5405,0.014666
2318.4041,0.015169
2320.2678,0.015613
2322.1315,0.015424
2323.9951,0.014742
2325.8588,0.014672
2327.7225,0.014649
2329.5861,0.014389
2331.4498,0.014220
2333.3135,0.014131
2335.1772,0.014014
2337.0408,0.014464
2338.9045,0.014782
2340.7682,0.015035
2342.6318,0.015418
2344.4955,0.015272
2346.3592,0.014451
2348.2228,0.014252
2350.0865,0.013805
2351.9502,0.013190
2353.8138,0.012825
2355.6775,0.013131
2357.5412,0.013602
2359.4049,0.013778
2361.2685,0.013272
2363.1322,0.013088
2364.9959,0.013870
2366.8595,0.014794
2368.7232,0.014940
2370.5869,0.015475
2372.4505,0.015947
2374.3142,0.016496
2376.1779,0.017078
2378.0415,0.017374
2379.9052,0.016963
2381.7689,0.016960
2383.6325,0.017233
2385.4962,0.017267
2387.3599,0.017066
2389.2236,0.017267
2391.0872,0.017372
2392.9509,0.017391
2394.8146,0.017359
2396.6782,0.017471
2398.5419,0.017449
2400.4056,0.017464
2402.2692,0.017613
2404.1329,0.017705
2405.9966,0.017580
2407.8602,0.017580
2409.7239,0.017678
2411.5876,0.018040
2413.4512,0.018048
2415.3149,0.017805
2417.1786,0.017960
2419.0423,0.018215
2420.9059,0.018144
2422.7696,0.018419
2424.6333,0.018748
2426.4969,0.018714
2428.3606,0.018415
2430.2243,0.018628
2432.0879,0.018899
2433.9516,0.018817
2435.8153,0.018746
2437.6789,0.018934
2439.5426,0.018957
2441.4063,0.019101
2443.2700,0.019348
2445.1336,0.019559
2446.9973,0.019316
2448.8610,0.019281
2450.7246,0.019475
2452.5883,0.019690
2454.4520,0.019855
2456.3156,0.019880
2458.1793,0.019632
2460.0430,0.019701
2461.9066,0.019964
2463.7703,0.020110
2465.6340,0.020192
2467.4976,0.020356
2469.3613,0.020353
2471.2250,0.020535
2473.0887,0.020626
2474.9523,0.020274
2476.8160,0.020103
2478.6797,0.020532
2480.5433,0.020883
2482.4070,0.021001
2484.2707,0.020917
2486.1343,0.021200
2487.9980,0.021630
2489.8617,0.021852
2491.7253,0.021710
2493.5890,0.021583
2495.4527,0.021551
2497.3164,0.021911
2499.1800,0.022051
2501.0437,0.022527
2502.9074,0.022771
2504.7710,0.022422
2506.6347,0.022304
2508.4984,0.022654
2510.3620,0.022744
2512.2257,0.022781
2514.0894,0.023076
2515.9530,0.023509
2517.8167,0.023436
2519.6804,0.023254
2521.5440,0.023399
2523.4077,0.023896
2525.2714,0.023868
2527.1351,0.023611
2528.9987,0.023541
2530.8624,0.024009
2532.7261,0.024414
2534.5897,0.024514
2536.4534,0.024497
2538.3171,0.024937
2540.1807,0.025061
2542.0444,0.025044
2543.9081,0.025213
2545.7717,0.025588
2547.6354,0.025795
2549.4991,0.025820
2551.3627,0.025830
2553.2264,0.025758
2555.0901,0.025439
2556.9538,0.025858
2558.8174,0.026553
2560.6811,0.026748
2562.5448,0.026617
2564.4084,0.026849
2566.2721,0.027252
2568.1358,0.027361
2569.9994,0.027201
2571.8631,0.027588
2573.7268,0.027835
2575.5904,0.028178
2577.4541,0.028352
2579.3178,0.028600
2581.1815,0.028951
2583.0451,0.029252
2584.9088,0.029614
2586.7725,0.030188
2588.6361,0.030033
2590.4998,0.029876
2592.3635,0.030115
2594.2271,0.030696
2596.0908,0.031169
2597.9545,0.031556
2599.8181,0.031662
2601.6818,0.032052
2603.5455,0.032130
2605.4091,0.032168
2607.2728,0.032706
2609.1365,0.033374
2611.0002,0.033553
2612.8638,0.033843
2614.7275,0.034083
2616.5912,0.034435
2618.4548,0.034719
2620.3185,0.035133
2622.1822,0.035441
2624.0458,0.035824
2625.9095,0.036050
2627.7732,0.036367
2629.6368,0.036923
2631.5005,0.037278
2633.3642,0.037341
2635.2279,0.037515
2637.0915,0.037871
2638.9552,0.038264
2640.8189,0.038530
2642.6825,0.038867
2644.5462,0.039072
2646.4099,0.039407
2648.2735,0.039721
2650.1372,0.040157
2652.0009,0.040448
2653.8645,0.040537
2655.7282,0.040432
2657.5919,0.040496
2659.4555,0.040810
2661.3192,0.041093
2663.1829,0.041051
2665.0466,0.041162
2666.9102,0.041330
2668.7739,0.041628
2670.6376,0.042021
2672.5012,0.042382
2674.3649,0.042427
2676.2286,0.042636
2678.0922,0.043049
2679.9559,0.043465
2681.8196,0.043610
2683.6832,0.043753
2685.5469,0.043978
2687.4106,0.044403
2689.2742,0.044790
2691.1379,0.045004
2693.0016,0.045197
2694.8653,0.045520
2696.7289,0.045792
2698.5926,0.046147
2700.4563,0.046566
2702.3199,0.046985
2704.1836,0.047173
2706.0473,0.047443
2707.9109,0.047834
2709.7746,0.048282
2711.6383,0.048502
2713.5019,0.048868
2715.3656,0.049280
2717.2293,0.049785
2719.0930,0.050230
2720.9566,0.050747
2722.8203,0.051105
2724.6840,0.051491
2726.5476,0.052012
2728.4113,0.052462
2730.2750,0.052702
2732.1386,0.053113
2734.0023,0.053466
2735.8660,0.053939
2737.7296,0.054420
2739.5933,0.054871
2741.4570,0.055316
2743.3206,0.055723
2745.1843,0.055985
2747.0480,0.056458
2748.9117,0.056869
2750.7753,0.057376
2752.6390,0.057872
2754.5027,0.058398
2756.3663,0.058616
2758.2300,0.058960
2760.0937,0.059639
2761.9573,0.060274
2763.8210,0.060478
2765.6847,0.060880
2767.5483,0.061373
2769.4120,0.061957
2771.2757,0.062457
2773.1394,0.063042
2775.0030,0.063596
2776.8667,0.064071
2778.7304,0.064558
2780.5940,0.065058
2782.4577,0.065467
2784.3214,0.066083
2786.1850,0.066612
2788.0487,0.067180
2789.9124,0.067558
2791.7760,0.068005
2793.6397,0.068665
2795.5034,0.069304
2797.3670,0.069692
2799.2307,0.070083
2801.0944,0.070508
2802.9581,0.071272
2804.8217,0.071878
2806.6854,0.072263
2808.5491,0.072739
2810.4127,0.073573
2812.2764,0.074103
2814.1401,0.074476
2816.0037,0.075060
2817.8674,0.075482
2819.7311,0.075801
2821.5947,0.076347
2823.4584,0.077087
2825.3221,0.077669
2827.1857,0.077692
2829.0494,0.078107
2830.9131,0.078851
2832.7768,0.079437
2834.6404,0.080043
2836.5041,0.080853
2838.3678,0.081661
2840.2314,0.082624
2842.0951,0.083320
2843.9588,0.084177
2845.8224,0.085144
2847.6861,0.086261
2849.5498,0.087134
2851.4134,0.088154
2853.2771,0.089234
2855.1408,0.090176
2857.0045,0.090938
2858.8681,0.092020
2860.7318,0.093347
2862.5955,0.094771
2864.4591,0.096033
2866.3228,0.097363
2868.1865,0.099011
2870.0501,0.100752
2871.9138,0.101699
2873.7775,0.102920
2875.6411,0.103868
2877.5048,0.104109
2879.3685,0.103764
2881.2321,0.103323
2883.0958,0.103293
2884.9595,0.103342
2886.8232,0.102889
2888.6868,0.102600
2890.5505,0.102402
2892.4142,0.102338
2894.2778,0.102522
2896.1415,0.103180
2898.0052,0.103881
2899.8688,0.104777
2901.7325,0.105767
2903.5962,0.106451
2905.4598,0.106935
2907.3235,0.107719
2909.1872,0.108621
2911.0509,0.109991
2912.9145,0.111213
2914.7782,0.112545
2916.6419,0.113771
2918.5055,0.115085
2920.3692,0.116320
2922.2329,0.117679
2924.0965,0.118341
2925.9602,0.119000
2927.8239,0.119655
2929.6875,0.120309
2931.5512,0.120982
2933.4149,0.121382
2935.2785,0.121488
2937.1422,0.121634
2939.0059,0.121385
2940.8696,0.121123
2942.7332,0.120561
2944.5969,0.120493
2946.4606,0.120737
2948.3242,0.121092
2950.1879,0.121357
2952.0516,0.121737
2953.9152,0.122141
2955.7789,0.122546
2957.6426,0.122461
2959.5062,0.122444
2961.3699,0.121982
2963.2336,0.121661
2965.0972,0.121312
2966.9609,0.121003
2968.8246,0.120398
2970.6883,0.119870
2972.5519,0.118907
2974.4156,0.118430
2976.2793,0.118117
2978.1429,0.117422
2980.0066,0.116495
2981.8703,0.115812
2983.7339,0.114841
2985.5976,0.113902
2987.4613,0.113227
2989.3249,0.112788
2991.1886,0.112153
2993.0523,0.111841
2994.9160,0.111429
2996.7796,0.111194
2998.6433,0.111198
3000.5070,0.111043
3002.3706,0.111132
3004.2343,0.111737
3006.0980,0.111872
3007.9616,0.111942
3009.8253,0.112724
3011.6890,0.114043
3013.5526,0.115031
3015.4163,0.115883
3017.2800,0.116466
3019.1436,0.117544
3021.0073,0.118271
3022.8710,0.118668
3024.7347,0.119461
3026.5983,0.120634
3028.4620,0.121466
3030.3257,0.122468
3032.1893,0.123512
3034.0530,0.124805
3035.9167,0.125699
3037.7803,0.126427
3039.6440,0.127027
3041.5077,0.128064
3043.3713,0.128982
3045.2350,0.130110
3047.0987,0.130863
3048.9624,0.131725
3050.8260,0.132625
3052.6897,0.133496
3054.5534,0.134002
3056.4170,0.134497
3058.2807,0.134895
3060.1444,0.135278
3062.0080,0.135606
3063.8717,0.136273
3065.7354,0.136827
3067.5990,0.137703
3069.4627,0.137715
3071.3264,0.137436
3073.1900,0.137273
3075.0537,0.137418
3076.9174,0.137181
3078.7811,0.137398
3080.6447,0.137769
3082.5084,0.138234
3084.3721,0.138044
3086.2357,0.138056
3088.0994,0.137721
3089.9631,0.137229
3091.8267,0.136706
3093.6904,0.136438
3095.5541,0.136210
3097.4177,0.136674
3099.2814,0.136499
3101.1451,0.136521
3103.0087,0.136968
3104.8724,0.137045
3106.7361,0.136998
3108.5998,0.137543
3110.4634,0.137920
3112.3271,0.138472
3114.1908,0.138539
3116.0544,0.139096
3117.9181,0.139722
3119.7818,0.140489
3121.6454,0.141438
3123.5091,0.142003
3125.3728,0.142283
3127.2364,0.143342
3129.1001,0.143842
3130.9638,0.144428
3132.8275,0.145197
3134.6911,0.146517
3136.5548,0.147417
3138.4185,0.148488
3140.2821,0.149878
3142.1458,0.150942
3144.0095,0.151561
3145.8731,0.152506
3147.7368,0.153710
3149.6005,0.155408
3151.4641,0.156579
3153.3278,0.157620
3155.1915,0.158450
3157.0551,0.159728
3158.9188,0.161144
3160.7825,0.162639
3162.6462,0.163549
3164.5098,0.164469
3166.3735,0.165546
3168.2372,0.167158
3170.1008,0.168079
3171.9645,0.169443
3173.8282,0.170485
3175.6918,0.172068
3177.5555,0.173295
3179.4192,0.174582
3181.2828,0.175191
3183.1465,0.176330
3185.0102,0.177188
3186.8739,0.178392
3188.7375,0.178937
3190.6012,0.179690
3192.4649,0.180606
3194.3285,0.181489
3196.1922,0.181934
3198.0559,0.182781
3199.9195,0.182878
3201.7832,0.183533
3203.6469,0.184241
3205.5105,0.185010
3207.3742,0.185141
3209.2379,0.185343
3211.1015,0.185745
3212.9652,0.186193
3214.8289,0.186260
3216.6926,0.186970
3218.5562,0.187068
3220.4199,0.187308
3222.2836,0.187146
3224.1472,0.187435
3226.0109,0.187934
3227.8746,0.188578
3229.7382,0.188613
3231.6019,0.188702
3233.4656,0.189367
3235.3292,0.190388
3237.1929,0.189697
3239.0566,0.189978
3240.9202,0.191302
3242.7839,0.191878
3244.6476,0.191971
3246.5113,0.192949
3248.3749,0.193452
3250.2386,0.193756
3252.1023,0.193448
3253.9659,0.193910
3255.8296,0.194398
3257.6933,0.195237
3259.5569,0.195592
3261.4206,0.196140
3263.2843,0.196274
3265.1479,0.196718
3267.0116,0.196547
3268.8753,0.196510
3270.7390,0.196306
3272.6026,0.197120
3274.4663,0.197423
3276.3300,0.196972
3278.1936,0.196191
3280.0573,0.196596
3281.9210,0.195704
3283.7846,0.195036
3285.6483,0.194446
3287.5120,0.194032
3289.3756,0.193478
3291.2393,0.192995
3293.1030,0.192184
3294.9666,0.191609
3296.8303,0.190855
3298.6940,0.189543
3300.5577,0.187794
3302.4213,0.187613
3304.2850,0.186516
3306.1487,0.185319
3308.0123,0.184455
3309.8760,0.183828
3311.7397,0.182701
3313.6033,0.181734
3315.4670,0.180426
3317.3307,0.179606
3319.1943,0.178619
3321.0580,0.178039
3322.9217,0.177204
3324.7854,0.177207
3326.6490,0.176544
3328.5127,0.175323
3330.3764,0.173750
3332.2400,0.172893
3334.1037,0.172255
3335.9674,0.171909
3337.8310,0.171409
3339.6947,0.171225
3341.5584,0.170543
3343.4220,0.169958
3345.2857,0.168965
3347.1494,0.167959
3349.0130,0.167079
3350.8767,0.167108
3352.7404,0.166481
3354.6041,0.165690
3356.4677,0.164713
3358.3314,0.164231
3360.1951,0.163370
3362.0587,0.162772
3363.9224,0.161931
3365.7861,0.161309
3367.6497,0.160850
3369.5134,0.160248
3371.3771,0.158956
3373.2407,0.158827
3375.1044,0.158248
3376.9681,0.157494
3378.8317,0.156606
3380.6954,0.156042
3382.5591,0.155342
3384.4228,0.154853
3386.2864,0.154072
3388.1501,0.153874
3390.0138,0.153113
3391.8774,0.152149
3393.7411,0.150929
3395.6048,0.150995
3397.4684,0.150181
3399.3321,0.149070
3401.1958,0.148319
3403.0594,0.148015
3404.9231,0.146702
3406.7868,0.145561
3408.6505,0.144854
3410.5141,0.144561
3412.3778,0.143493
3414.2415,0.142175
3416.1051,0.141350
3417.9688,0.141419
3419.8325,0.140288
3421.6961,0.139631
3423.5598,0.138515
3425.4235,0.137472
3427.2871,0.136337
3429.1508,0.135352
3431.0145,0.134331
3432.8781,0.133947
3434.7418,0.133148
3436.6055,0.131761
3438.4692,0.130018
3440.3328,0.129377
3442.1965,0.128489
3444.0602,0.127619
3445.9238,0.126082
3447.7875,0.125744
3449.6512,0.125606
3451.5148,0.124191
3453.3785,0.122530
3455.2422,0.122262
3457.1058,0.120837
3458.9695,0.118938
3460.8332,0.117856
3462.6969,0.117650
3464.5605,0.116262
3466.4242,0.114873
3468.2879,0.114014
3470.1515,0.112753
3472.0152,0.111586
3473.8789,0.110641
3475.7425,0.109097
3477.6062,0.108102
3479.4699,0.106624
3481.3335,0.105746
3483.1972,0.104733
3485.0609,0.104139
3486.9245,0.102885
3488.7882,0.102018
3490.6519,0.100948
3492.5156,0.099402
3494.3792,0.098166
3496.2429,0.097190
3498.1066,0.095015
3499.9702,0.093549
3501.8339,0.092700
3503.6976,0.091848
3505.5612,0.091011
3507.4249,0.090559
3509.2886,0.088865
3511.1522,0.087104
3513.0159,0.085498
3514.8796,0.084162
3516.7432,0.082675
3518.6069,0.082008
3520.4706,0.080883
3522.3343,0.079925
3524.1979,0.079402
3526.0616,0.078238
3527.9253,0.076294
3529.7889,0.075136
3531.6526,0.073683
3533.5163,0.072549
3535.3799,0.070819
3537.2436,0.069421
3539.1073,0.068252
3540.9709,0.067258
3542.8346,0.065986
3544.6983,0.064466
3546.5620,0.063398
3548.4256,0.062803
3550.2893,0.060960
3552.1530,0.059517
3554.0166,0.058641
3555.8803,0.057553
3557.7440,0.055412
3559.6076,0.053807
3561.4713,0.052705
3563.3350,0.051944
3565.1986,0.051013
3567.0623,0.049840
3568.9260,0.049690
3570.7896,0.048575
3572.6533,0.046392
3574.5170,0.044699
3576.3807,0.043145
3578.2443,0.042119
3580.1080,0.040860
3581.9717,0.039798
3583.8353,0.038871
3585.6990,0.037727
3587.5627,0.036446
3589.4263,0.035771
3591.2900,0.034834
3593.1537,0.033233
3595.0173,0.032076
3596.8810,0.031853
3598.7447,0.030781
3600.6084,0.029088
3602.4720,0.027570
3604.3357,0.026899
3606.1994,0.025493
3608.0630,0.024416
3609.9267,0.023304
3611.7904,0.022459
3613.6540,0.021518
3615.5177,0.021055
3617.3814,0.019920
3619.2450,0.018228
3621.1087,0.017063
3622.9724,0.017369
3624.8360,0.016810
3626.6997,0.015665
3628.5634,0.013487
3630.4271,0.012172
3632.2907,0.012235
3634.1544,0.011811
3636.0181,0.011129
3637.8817,0.010571
3639.7454,0.009536
3641.6091,0.008239
3643.4727,0.007068
3645.3364,0.006434
3647.2001,0.005152
3649.0637,0.003746
3650.9274,0.003364
3652.7911,0.003818
3654.6547,0.003829
3656.5184,0.002732
3658.3821,0.002055
3660.2458,0.001451
3662.1094,0.000532
3663.9731,0.000043
3665.8368,-0.000181
3667.7004,-0.000652
3669.5641,-0.002239
3671.4278,-0.003036
3673.2914,-0.002318
3675.1551,-0.003642
3677.0188,-0.005338
3678.8824,-0.004125
3680.7461,-0.003517
3682.6098,-0.003426
3684.4735,-0.003920
3686.3371,-0.004139
3688.2008,-0.005257
3690.0645,-0.006102
3691.9281,-0.005754
3693.7918,-0.004854
3695.6555,-0.004987
3697.5191,-0.005611
3699.3828,-0.005556
3701.2465,-0.005732
3703.1101,-0.006085
3704.9738,-0.005598
3706.8375,-0.005522
3708.7011,-0.006125
3710.5648,-0.007228
3712.4285,-0.007930
3714.2922,-0.007304
3716.1558,-0.006204
3718.0195,-0.005962
3719.8832,-0.006244
3721.7468,-0.006912
3723.6105,-0.007330
3725.4742,-0.007332
3727.3378,-0.007247
3729.2015,-0.006972
3731.0652,-0.006779
3732.9288,-0.007761
3734.7925,-0.008357
3736.6562,-0.008456
3738.5199,-0.007732
3740.3835,-0.006939
3742.2472,-0.007141
3744.1109,-0.008533
3745.9745,-0.009509
3747.8382,-0.007152
3749.7019,-0.006824
3751.5655,-0.007895
3753.4292,-0.007867
3755.2929,-0.006968
3757.1565,-0.006548
3759.0202,-0.006960
3760.8839,-0.006824
3762.7475,-0.006166
3764.6112,-0.006057
3766.4749,-0.006453
3768.3386,-0.006542
3770.2022,-0.006956
3772.0659,-0.006778
3773.9296,-0.005851
3775.7932,-0.005673
3777.6569,-0.006059
3779.5206,-0.006469
3781.3842,-0.006323
3783.2479,-0.005851
3785.1116,-0.006050
3786.9752,-0.006235
3788.8389,-0.006271
3790.7026,-0.006459
3792.5662,-0.006470
3794.4299,-0.006446
3796.2936,-0.006692
3798.1573,-0.006624
3800.0209,-0.006828
3801.8846,-0.008041
3803.7483,-0.007744
3805.6119,-0.006319
3807.4756,-0.007164
3809.3393,-0.006991
3811.2029,-0.005728
3813.0666,-0.005698
3814.9303,-0.006635
3816.7939,-0.007484
3818.6576,-0.006623
3820.5213,-0.006934
3822.3850,-0.008568
3824.2486,-0.007418
3826.1123,-0.006458
3827.9760,-0.006615
3829.8396,-0.006387
3831.7033,-0.006708
3833.5670,-0.007124
3835.4306,-0.007160
3837.2943,-0.007940
3839.1580,-0.007738
3841.0216,-0.006893
3842.8853,-0.006841
3844.7490,-0.006971
3846.6126,-0.006641
3848.4763,-0.006802
3850.3400,-0.006828
3852.2037,-0.007202
3854.0673,-0.008511
3855.9310,-0.008001
3857.7947,-0.006278
3859.6583,-0.005997
3861.5220,-0.006422
3863.3857,-0.006819
3865.2493,-0.006985
3867.1130,-0.006822
3868.9767,-0.006618
3870.8403,-0.007650
3872.7040,-0.007128
3874.5677,-0.006697
3876.4314,-0.006525
3878.2950,-0.006080
3880.1587,-0.006469
3882.0224,-0.006523
3883.8860,-0.006265
3885.7497,-0.006969
3887.6134,-0.006768
3889.4770,-0.005999
3891.3407,-0.006246
3893.2044,-0.006525
3895.0680,-0.006034
3896.9317,-0.005808
3898.7954,-0.006274
3900.6590,-0.006864
3902.5227,-0.006951
3904.3864,-0.006831
3906.2501,-0.006391
3908.1137,-0.005807
3909.9774,-0.005740
3911.8411,-0.005656
3913.7047,-0.005300
3915.5684,-0.005420
3917.4321,-0.005835
3919.2957,-0.006323
3921.1594,-0.006501
3923.0231,-0.006126
3924.8867,-0.005629
3926.7504,-0.005532
3928.6141,-0.005342
3930.4777,-0.005499
3932.3414,-0.005918
3934.2051,-0.006340
3936.0688,-0.005661
3937.9324,-0.005366
3939.7961,-0.005446
3941.6598,-0.005600
3943.5234,-0.005805
3945.3871,-0.005411
3947.2508,-0.004983
3949.1144,-0.005404
3950.9781,-0.005277
3952.8418,-0.005464
3954.7054,-0.005647
3956.5691,-0.005541
3958.4328,-0.005402
3960.2965,-0.005408
3962.1601,-0.005377
3964.0238,-0.005515
3965.8875,-0.005770
3967.7511,-0.005651
3969.6148,-0.005020
3971.4785,-0.004918
3973.3421,-0.005501
3975.2058,-0.005553
3977.0695,-0.005173
3978.9331,-0.005189
3980.7968,-0.005155
3982.6605,-0.005256
3984.5241,-0.005350
3986.3878,-0.005213
3988.2515,-0.005224
3990.1152,-0.005506
3991.9788,-0.005826
3993.8425,-0.005693
3995.7062,-0.005033
3997.5698,-0.005172
3999.4335,-0.005589
