Wavenumber,Intensity
650.4205,0.197903
652.2841,0.197779
654.1478,0.194648
656.0115,0.192302
657.8751,0.192374
659.7388,0.190231
661.6025,0.188467
663.4661,0.188358
665.3298,0.185867
667.1935,0.187074
669.0571,0.192097
670.9208,0.188393
672.7845,0.185699
674.6481,0.184549
676.5118,0.182657
678.3755,0.180359
680.2392,0.178244
682.1028,0.176743
683.9665,0.175677
685.8302,0.174054
687.6938,0.171811
689.5575,0.170449
691.4212,0.169907
693.2848,0.170742
695.1485,0.171495
697.0122,0.170290
698.8758,0.168384
700.7395,0.166914
702.6032,0.165306
704.4669,0.162770
706.3305,0.159882
708.1942,0.158523
710.0579,0.157515
711.9215,0.156253
713.7852,0.154324
715.6489,0.151300
717.5125,0.149136
719.3762,0.148492
721.2399,0.147616
723.1035,0.145776
724.9672,0.143719
726.8309,0.142426
728.6945,0.141195
730.5582,0.140317
732.4219,0.140174
734.2856,0.139780
736.1492,0.138643
738.0129,0.137922
739.8766,0.137235
741.7402,0.137018
743.6039,0.136752
745.4676,0.135850
747.3312,0.134499
749.1949,0.132917
751.0586,0.131530
752.9222,0.130200
754.7859,0.128746
756.6496,0.127945
758.5132,0.127192
760.3769,0.126327
762.2406,0.125973
764.1043,0.125736
765.9679,0.124551
767.8316,0.123169
769.6953,0.122092
771.5589,0.120674
773.4226,0.119051
775.2863,0.118394
777.1499,0.117901
779.0136,0.117260
780.8773,0.116401
782.7409,0.115745
784.6046,0.115071
786.4683,0.113984
788.3320,0.112688
790.1956,0.111370
792.0593,0.110435
793.9230,0.109907
795.7866,0.109532
797.6503,0.108977
799.5140,0.108155
801.3776,0.107963
803.2413,0.107787
805.1050,0.107437
806.9686,0.106858
808.8323,0.106295
810.6960,0.105848
812.5596,0.105119
814.4233,0.104420
816.2870,0.104161
818.1507,0.103428
820.0143,0.102441
821.8780,0.101471
823.7417,0.100196
825.6053,0.098938
827.4690,0.098250
829.3327,0.097693
831.1963,0.097243
833.0600,0.096728
834.9237,0.096070
836.7873,0.095165
838.6510,0.094345
840.5147,0.093652
842.3784,0.093031
844.2420,0.092442
846.1057,0.092173
847.9694,0.091979
849.8330,0.091614
851.6967,0.091300
853.5604,0.091220
855.4240,0.091246
857.2877,0.091233
859.1514,0.091472
861.0150,0.091833
862.8787,0.092063
864.7424,0.092965
866.6060,0.094487
868.4697,0.096444
870.3334,0.097820
872.1971,0.096885
874.0607,0.094689
875.9244,0.093165
877.7881,0.092097
879.6517,0.091395
881.5154,0.090927
883.3791,0.090582
885.2427,0.090268
887.1064,0.090101
888.9701,0.090248
890.8337,0.090537
892.6974,0.090757
894.5611,0.090924
896.4247,0.091006
898.2884,0.091046
900.1521,0.090942
902.0158,0.090755
903.8794,0.090621
905.7431,0.090507
907.6068,0.090425
909.4704,0.090764
911.3341,0.091291
913.1978,0.091843
915.0614,0.092523
916.9251,0.093157
918.7888,0.093581
920.6524,0.093934
922.5161,0.094344
924.3798,0.094675
926.2435,0.094736
928.1071,0.094821
929.9708,0.094976
931.8345,0.095101
933.6981,0.095246
935.5618,0.095587
937.4255,0.096068
939.2891,0.096686
941.1528,0.097397
943.0165,0.098294
944.8801,0.099169
946.7438,0.099956
948.6075,0.100761
950.4711,0.101519
952.3348,0.102205
954.1985,0.103212
956.0622,0.104524
957.9258,0.106279
959.7895,0.108366
961.6532,0.110604
963.5168,0.112843
965.3805,0.114843
967.2442,0.116412
969.1078,0.117424
970.9715,0.117979
972.8352,0.118525
974.6988,0.119366
976.5625,0.120531
978.4262,0.121772
980.2899,0.123474
982.1535,0.125493
984.0172,0.127411
985.8809,0.129280
987.7445,0.131211
989.6082,0.133171
991.4719,0.135348
993.3355,0.137629
995.1992,0.139853
997.0629,0.141857
998.9265,0.143705
1000.7902,0.145559
1002.6539,0.147446
1004.5175,0.149606
1006.3812,0.152120
1008.2449,0.154932
1010.1086,0.158106
1011.9722,0.161455
1013.8359,0.164751
1015.6996,0.167979
1017.5632,0.170979
1019.4269,0.173528
1021.2906,0.175622
1023.1542,0.177178
1025.0179,0.178461
1026.8816,0.179713
1028.7452,0.180903
1030.6089,0.181806
1032.4726,0.182396
1034.3362,0.182678
1036.1999,0.182554
1038.0636,0.182136
1039.9273,0.181725
1041.7909,0.181162
1043.6546,0.180487
1045.5183,0.179965
1047.3819,0.179409
1049.2456,0.178875
1051.1093,0.178464
1052.9729,0.178047
1054.8366,0.177689
1056.7003,0.177376
1058.5639,0.177073
1060.4276,0.176791
1062.2913,0.176464
1064.1550,0.176138
1066.0186,0.175879
1067.8823,0.175720
1069.7460,0.175472
1071.6096,0.174908
1073.4733,0.173848
1075.3370,0.172365
1077.2006,0.170419
1079.0643,0.167742
1080.9280,0.164503
1082.7916,0.160956
1084.6553,0.157421
1086.5190,0.154032
1088.3826,0.150905
1090.2463,0.148362
1092.1100,0.146332
1093.9737,0.144552
1095.8373,0.142975
1097.7010,0.141492
1099.5647,0.140190
1101.4283,0.139243
1103.2920,0.138468
1105.1557,0.137678
1107.0193,0.136882
1108.8830,0.136149
1110.7467,0.135486
1112.6103,0.134801
1114.4740,0.133839
1116.3377,0.132553
1118.2014,0.131181
1120.0650,0.129740
1121.9287,0.128294
1123.7924,0.126796
1125.6560,0.125278
1127.5197,0.123689
1129.3834,0.121972
1131.2470,0.120159
1133.1107,0.118285
1134.9744,0.116420
1136.8380,0.114843
1138.7017,0.113535
1140.5654,0.112550
1142.4290,0.111978
1144.2927,0.111745
1146.1564,0.111838
1148.0201,0.112105
1149.8837,0.112379
1151.7474,0.112535
1153.6111,0.112559
1155.4747,0.112536
1157.3384,0.112427
1159.2021,0.112139
1161.0657,0.111567
1162.9294,0.110795
1164.7931,0.109783
1166.6567,0.108473
1168.5204,0.106883
1170.3841,0.105062
1172.2477,0.102975
1174.1114,0.100676
1175.9751,0.098403
1177.8388,0.096533
1179.7024,0.095217
1181.5661,0.094651
1183.4298,0.094803
1185.2934,0.095349
1187.1571,0.096077
1189.0208,0.096990
1190.8844,0.098119
1192.7481,0.099351
1194.6118,0.100756
1196.4754,0.102302
1198.3391,0.103856
1200.2028,0.105447
1202.0665,0.107067
1203.9301,0.108574
1205.7938,0.109819
1207.6575,0.110821
1209.5211,0.111718
1211.3848,0.112734
1213.2485,0.113937
1215.1121,0.115192
1216.9758,0.116616
1218.8395,0.118298
1220.7031,0.120027
1222.5668,0.121862
1224.4305,0.123780
1226.2941,0.125568
1228.1578,0.127116
1230.0215,0.128467
1231.8852,0.129614
1233.7488,0.130482
1235.6125,0.130935
1237.4762,0.131082
1239.3398,0.131042
1241.2035,0.130622
1243.0672,0.129999
1244.9308,0.129175
1246.7945,0.127961
1248.6582,0.126602
1250.5218,0.125352
1252.3855,0.124142
1254.2492,0.122976
1256.1129,0.121788
1257.9765,0.120883
1259.8402,0.120234
1261.7039,0.119630
1263.5675,0.119002
1265.4312,0.118468
1267.2949,0.118003
1269.1585,0.117598
1271.0222,0.117388
1272.8859,0.117170
1274.7495,0.116880
1276.6132,0.116682
1278.4769,0.116617
1280.3405,0.116659
1282.2042,0.116679
1284.0679,0.116628
1285.9316,0.116696
1287.7952,0.116931
1289.6589,0.117155
1291.5226,0.117361
1293.3862,0.117680
1295.2499,0.118139
1297.1136,0.118765
1298.9772,0.119489
1300.8409,0.120084
1302.7046,0.120706
1304.5682,0.121367
1306.4319,0.121911
1308.2956,0.122369
1310.1592,0.122704
1312.0229,0.123101
1313.8866,0.123206
1315.7503,0.122780
1317.6139,0.122382
1319.4776,0.121763
1321.3413,0.120768
1323.2049,0.119868
1325.0686,0.119168
1326.9323,0.118609
1328.7959,0.118291
1330.6596,0.118233
1332.5233,0.118188
1334.3869,0.117878
1336.2506,0.117988
1338.1143,0.118904
1339.9780,0.119927
1341.8416,0.119623
1343.7053,0.119064
1345.5690,0.118772
1347.4326,0.118526
1349.2963,0.118555
1351.1600,0.118470
1353.0236,0.118561
1354.8873,0.119218
1356.7510,0.119532
1358.6146,0.119551
1360.4783,0.120899
1362.3420,0.124273
1364.2056,0.126412
1366.0693,0.127474
1367.9330,0.129587
1369.7967,0.130794
1371.6603,0.131756
1373.5240,0.134820
1375.3877,0.137175
1377.2513,0.137986
1379.1150,0.139538
1380.9787,0.140900
1382.8423,0.141599
1384.7060,0.142360
1386.5697,0.144918
1388.4333,0.146431
1390.2970,0.145084
1392.1607,0.144418
1394.0244,0.146007
1395.8880,0.146758
1397.7517,0.146551
1399.6154,0.146627
1401.4790,0.144349
1403.3427,0.143116
1405.2064,0.142847
1407.0700,0.141109
1408.9337,0.139379
1410.7974,0.138329
1412.6610,0.136870
1414.5247,0.134859
1416.3884,0.133898
1418.2520,0.136657
1420.1157,0.137573
1421.9794,0.135186
1423.8431,0.135435
1425.7067,0.135271
1427.5704,0.135536
1429.4341,0.138249
1431.2977,0.139700
1433.1614,0.139382
1435.0251,0.142478
1436.8887,0.149038
1438.7524,0.149370
1440.6161,0.148434
1442.4797,0.148665
1444.3434,0.148389
1446.2071,0.149094
1448.0707,0.150520
1449.9344,0.149114
1451.7981,0.146142
1453.6618,0.143140
1455.5254,0.143882
1457.3891,0.147210
1459.2528,0.142070
1461.1164,0.136058
1462.9801,0.133948
1464.8438,0.134583
1466.7074,0.131632
1468.5711,0.127052
1470.4348,0.124787
1472.2984,0.125882
1474.1621,0.124865
1476.0258,0.122957
1477.8895,0.120952
1479.7531,0.120257
1481.6168,0.121339
1483.4805,0.121690
1485.3441,0.122988
1487.2078,0.127416
1489.0715,0.135304
1490.9351,0.141442
1492.7988,0.141749
1494.6625,0.145114
1496.5261,0.154815
1498.3898,0.162538
1500.2535,0.165259
1502.1171,0.165329
1503.9808,0.167310
1505.8445,0.180136
1507.7082,0.195548
1509.5718,0.196384
1511.4355,0.198335
1513.2992,0.201019
1515.1628,0.203911
1517.0265,0.206234
1518.8902,0.206455
1520.7538,0.209821
1522.6175,0.212266
1524.4812,0.212066
1526.3448,0.214152
1528.2085,0.214607
1530.0722,0.214140
1531.9359,0.215711
1533.7995,0.217330
1535.6632,0.213620
1537.5269,0.212094
1539.3905,0.214040
1541.2542,0.213570
1543.1179,0.210344
1544.9815,0.206648
1546.8452,0.200867
1548.7089,0.195951
1550.5725,0.190060
1552.4362,0.184118
1554.2999,0.177528
1556.1635,0.171726
1558.0272,0.171324
1559.8909,0.166916
1561.7546,0.158681
1563.6182,0.154252
1565.4819,0.149809
1567.3456,0.146340
1569.2092,0.144933
1571.0729,0.140923
1572.9366,0.136788
1574.8002,0.136709
1576.6639,0.137616
1578.5276,0.135159
1580.3912,0.133536
1582.2549,0.133217
1584.1186,0.133518
1585.9822,0.134588
1587.8459,0.136057
1589.7096,0.138136
1591.5733,0.140674
1593.4369,0.143902
1595.3006,0.147684
1597.1643,0.151352
1599.0279,0.155348
1600.8916,0.160236
1602.7553,0.165497
1604.6189,0.170976
1606.4826,0.177217
1608.3463,0.184337
1610.2099,0.190951
1612.0736,0.195868
1613.9373,0.200689
1615.8010,0.209554
1617.6646,0.217342
1619.5283,0.219597
1621.3920,0.223530
1623.2556,0.229358
1625.1193,0.232619
1626.9830,0.235350
1628.8466,0.237491
1630.7103,0.236980
1632.5740,0.236255
1634.4376,0.237469
1636.3013,0.235282
1638.1650,0.230792
1640.0286,0.227092
1641.8923,0.222934
1643.7560,0.219213
1645.6197,0.216732
1647.4833,0.210990
1649.3470,0.204816
1651.2107,0.202171
1653.0743,0.198026
1654.9380,0.188678
1656.8017,0.182598
1658.6653,0.176068
1660.5290,0.169506
1662.3927,0.162337
1664.2563,0.154377
1666.1200,0.147912
1667.9837,0.142695
1669.8474,0.135775
1671.7110,0.128812
1673.5747,0.123728
1675.4384,0.118239
1677.3020,0.111686
1679.1657,0.106406
1681.0294,0.100731
1682.8930,0.096277
1684.7567,0.089656
1686.6204,0.083021
1688.4840,0.078205
1690.3477,0.072417
1692.2114,0.066292
1694.0750,0.061180
1695.9387,0.054880
1697.8024,0.048899
1699.6661,0.045172
1701.5297,0.040274
1703.3934,0.037217
1705.2571,0.035002
1707.1207,0.032212
1708.9844,0.030275
1710.8481,0.028623
1712.7117,0.027063
1714.5754,0.025650
1716.4391,0.024972
1718.3027,0.024382
1720.1664,0.023292
1722.0301,0.022575
1723.8937,0.022105
1725.7574,0.021462
1727.6211,0.020728
1729.4848,0.019973
1731.3484,0.019436
1733.2121,0.019455
1735.0758,0.018937
1736.9394,0.017997
1738.8031,0.017718
1740.6668,0.017207
1742.5304,0.016793
1744.3941,0.016157
1746.2578,0.015623
1748.1214,0.015422
1749.9851,0.015246
1751.8488,0.014756
1753.7125,0.014213
1755.5761,0.013903
1757.4398,0.013379
1759.3035,0.012947
1761.1671,0.013054
1763.0308,0.012835
1764.8945,0.012437
1766.7581,0.012248
1768.6218,0.012288
1770.4855,0.012332
1772.3491,0.012243
1774.2128,0.011766
1776.0765,0.011685
1777.9401,0.011568
1779.8038,0.011577
1781.6675,0.011465
1783.5312,0.011579
1785.3948,0.011360
1787.2585,0.010997
1789.1222,0.011011
1790.9858,0.011278
1792.8495,0.011333
1794.7132,0.011161
1796.5768,0.010859
1798.4405,0.010807
1800.3042,0.010913
1802.1678,0.010835
1804.0315,0.010704
1805.8952,0.010491
1807.7589,0.010050
1809.6225,0.009948
1811.4862,0.010007
1813.3499,0.009734
1815.2135,0.009469
1817.0772,0.009657
1818.9409,0.009944
1820.8045,0.010059
1822.6682,0.009953
1824.5319,0.009740
1826.3955,0.009533
1828.2592,0.009912
1830.1229,0.010064
1831.9865,0.009706
1833.8502,0.009453
1835.7139,0.009351
1837.5776,0.009191
1839.4412,0.008978
1841.3049,0.008812
1843.1686,0.009065
1845.0322,0.009484
1846.8959,0.009589
1848.7596,0.009648
1850.6232,0.009551
1852.4869,0.009232
1854.3506,0.009175
1856.2142,0.009324
1858.0779,0.009394
1859.9416,0.009190
1861.8052,0.008777
1863.6689,0.009117
1865.5326,0.009585
1867.3963,0.009634
1869.2599,0.009687
1871.1236,0.009056
1872.9873,0.008644
1874.8509,0.008908
1876.7146,0.009159
1878.5783,0.009479
1880.4419,0.009514
1882.3056,0.009275
1884.1693,0.009131
1886.0329,0.009000
1887.8966,0.009123
1889.7603,0.009404
1891.6240,0.009489
1893.4876,0.009302
1895.3513,0.008969
1897.2150,0.008855
1899.0786,0.008994
1900.9423,0.009069
1902.8060,0.008852
1904.6696,0.008936
1906.5333,0.009224
1908.3970,0.009266
1910.2606,0.009271
1912.1243,0.008683
1913.9880,0.007855
1915.8516,0.008442
1917.7153,0.009712
1919.5790,0.009463
1921.4427,0.008497
1923.3063,0.008517
1925.1700,0.009282
1927.0337,0.009647
1928.8973,0.009481
1930.7610,0.009439
1932.6247,0.009519
1934.4883,0.009093
1936.3520,0.008407
1938.2157,0.008735
1940.0793,0.009839
1941.9430,0.009764
1943.8067,0.008617
1945.6704,0.008151
1947.5340,0.008792
1949.3977,0.009816
1951.2614,0.009482
1953.1250,0.008697
1954.9887,0.009022
1956.8524,0.008867
1958.7160,0.007746
1960.5797,0.007677
1962.4434,0.008459
1964.3070,0.008704
1966.1707,0.008954
1968.0344,0.009618
1969.8980,0.009399
1971.7617,0.008814
1973.6254,0.009263
1975.4891,0.009932
1977.3527,0.009764
1979.2164,0.009456
1981.0801,0.009578
1982.9437,0.010547
1984.8074,0.011276
1986.6711,0.011204
1988.5347,0.011393
1990.3984,0.011729
1992.2621,0.011405
1994.1257,0.010948
1995.9894,0.010585
1997.8531,0.010239
1999.7167,0.010106
2001.5804,0.010938
2003.4441,0.011862
2005.3078,0.010943
2007.1714,0.010253
2009.0351,0.011579
2010.8988,0.011443
2012.7624,0.010480
2014.6261,0.011207
2016.4898,0.011990
2018.3534,0.011369
2020.2171,0.011612
2022.0808,0.011435
2023.9444,0.009785
2025.8081,0.010045
2027.6718,0.010902
2029.5355,0.011065
2031.3991,0.011858
2033.2628,0.013197
2035.1265,0.014458
2036.9901,0.014628
2038.8538,0.015115
2040.7175,0.015503
2042.5811,0.015071
2044.4448,0.015086
2046.3085,0.016057
2048.1721,0.016827
2050.0358,0.017088
2051.8995,0.016577
2053.7631,0.016372
2055.6268,0.017189
2057.4905,0.017453
2059.3542,0.016150
2061.2178,0.015191
2063.0815,0.015673
2064.9452,0.016764
2066.8088,0.017247
2068.6725,0.017300
2070.5362,0.016972
2072.3998,0.016279
2074.2635,0.016120
2076.1272,0.016158
2077.9908,0.015626
2079.8545,0.015920
2081.7182,0.016272
2083.5819,0.015266
2085.4455,0.014604
2087.3092,0.014938
2089.1729,0.015008
2091.0365,0.014648
2092.9002,0.014207
2094.7639,0.014223
2096.6275,0.014644
2098.4912,0.014533
2100.3549,0.014662
2102.2185,0.014798
2104.0822,0.014257
2105.9459,0.014463
2107.8095,0.014943
2109.6732,0.014976
2111.5369,0.014951
2113.4006,0.014938
2115.2642,0.014846
2117.1279,0.014476
2118.9916,0.014360
2120.8552,0.014159
2122.7189,0.013849
2124.5826,0.013379
2126.4462,0.012405
2128.3099,0.012114
2130.1736,0.012520
2132.0372,0.012292
2133.9009,0.012226
2135.7646,0.013495
2137.6282,0.013780
2139.4919,0.013077
2141.3556,0.013457
2143.2193,0.013387
2145.0829,0.012860
2146.9466,0.013091
2148.8103,0.012056
2150.6739,0.010374
2152.5376,0.010288
2154.4013,0.011398
2156.2649,0.012194
2158.1286,0.013862
2159.9923,0.015782
2161.8559,0.016029
2163.7196,0.015901
2165.5833,0.016760
2167.4470,0.016989
2169.3106,0.016374
2171.1743,0.016056
2173.0380,0.015817
2174.9016,0.015251
2176.7653,0.014600
2178.6290,0.013466
2180.4926,0.013614
2182.3563,0.014444
2184.2200,0.015423
2186.0836,0.015660
2187.9473,0.015732
2189.8110,0.016053
2191.6746,0.015839
2193.5383,0.015583
2195.4020,0.015449
2197.2657,0.015157
2199.1293,0.015197
2200.9930,0.015570
2202.8567,0.014995
2204.7203,0.014742
2206.5840,0.015424
2208.4477,0.016084
2210.3113,0.016144
2212.1750,0.015316
2214.0387,0.015521
2215.9023,0.016416
2217.7660,0.016219
2219.6297,0.015604
2221.4934,0.015642
2223.3570,0.015406
2225.2207,0.015278
2227.0844,0.015026
2228.9480,0.015268
2230.8117,0.016446
2232.6754,0.016863
2234.5390,0.016358
2236.4027,0.015845
2238.2664,0.015446
2240.1300,0.015344
2241.9937,0.015532
2243.8574,0.016102
2245.7210,0.016272
2247.5847,0.016045
2249.4484,0.016215
2251.3121,0.016471
2253.1757,0.016245
2255.0394,0.015857
2256.9031,0.016134
2258.7667,0.016526
2260.6304,0.016025
2262.4941,0.015779
2264.3577,0.015904
2266.2214,0.016149
2268.0851,0.015695
2269.9487,0.016246
2271.8124,0.017223
2273.6761,0.016968
2275.5397,0.016857
2277.4034,0.017494
2279.2671,0.017763
2281.1308,0.017675
2282.9944,0.017930
2284.8581,0.018044
2286.7218,0.018159
2288.5854,0.018166
2290.4491,0.017609
2292.3128,0.017031
2294.1764,0.016920
2296.0401,0.016998
2297.9038,0.017034
2299.7674,0.017102
2301.6311,0.017087
2303.4948,0.017168
2305.3585,0.017308
2307.2221,0.017094
2309.0858,0.016966
2310.9495,0.017450
2312.8131,0.017712
2314.6768,0.017405
2316.5405,0.017303
2318.4041,0.017461
2320.2678,0.018355
2322.1315,0.019222
2323.9951,0.018971
2325.8588,0.017816
2327.7225,0.016637
2329.5861,0.016754
2331.4498,0.017215
2333.3135,0.017373
2335.1772,0.017674
2337.0408,0.017987
2338.9045,0.018105
2340.7682,0.018602
2342.6318,0.018631
2344.4955,0.018306
2346.3592,0.017457
2348.2228,0.016430
2350.0865,0.015930
2351.9502,0.016008
2353.8138,0.016502
2355.6775,0.016689
2357.5412,0.016748
2359.4049,0.017955
2361.2685,0.018917
2363.1322,0.019100
2364.9959,0.019358
2366.8595,0.019597
2368.7232,0.019673
2370.5869,0.020054
2372.4505,0.019763
2374.3142,0.019651
2376.1779,0.019695
2378.0415,0.018953
2379.9052,0.018336
2381.7689,0.018093
2383.6325,0.017711
2385.4962,0.017548
2387.3599,0.017543
2389.2236,0.017490
2391.0872,0.017723
2392.9509,0.017807
2394.8146,0.017568
2396.6782,0.017656
2398.5419,0.017779
2400.4056,0.017795
2402.2692,0.017865
2404.1329,0.018016
2405.9966,0.018304
2407.8602,0.018553
2409.7239,0.018604
2411.5876,0.018525
2413.4512,0.018302
2415.3149,0.018530
2417.1786,0.018940
2419.0423,0.019184
2420.9059,0.019136
2422.7696,0.019001
2424.6333,0.019149
2426.4969,0.018813
2428.3606,0.018440
2430.2243,0.018810
2432.0879,0.019204
2433.9516,0.019415
2435.8153,0.019696
2437.6789,0.019760
2439.5426,0.019649
2441.4063,0.019703
2443.2700,0.019901
2445.1336,0.020173
2446.9973,0.020115
2448.8610,0.019933
2450.7246,0.020064
2452.5883,0.020488
2454.4520,0.020595
2456.3156,0.020760
2458.1793,0.020833
2460.0430,0.020650
2461.9066,0.020362
2463.7703,0.020413
2465.6340,0.020598
2467.4976,0.020905
2469.3613,0.021274
2471.2250,0.021221
2473.0887,0.020892
2474.9523,0.021208
2476.8160,0.021189
2478.6797,0.021255
2480.5433,0.021661
2482.4070,0.021524
2484.2707,0.021339
2486.1343,0.021869
2487.9980,0.022461
2489.8617,0.022606
2491.7253,0.022457
2493.5890,0.022242
2495.4527,0.022117
2497.3164,0.022085
2499.1800,0.022245
2501.0437,0.022474
2502.9074,0.022616
2504.7710,0.022848
2506.6347,0.022733
2508.4984,0.022917
2510.3620,0.023025
2512.2257,0.022854
2514.0894,0.022865
2515.9530,0.023413
2517.8167,0.023631
2519.6804,0.023354
2521.5440,0.023290
2523.4077,0.023523
2525.2714,0.023651
2527.1351,0.023484
2528.9987,0.023480
2530.8624,0.023437
2532.7261,0.023431
2534.5897,0.023471
2536.4534,0.023360
2538.3171,0.023605
2540.1807,0.024246
2542.0444,0.024621
2543.9081,0.024603
2545.7717,0.024398
2547.6354,0.024195
2549.4991,0.024476
2551.3627,0.024785
2553.2264,0.024942
2555.0901,0.025034
2556.9538,0.024793
2558.8174,0.024986
2560.6811,0.025736
2562.5448,0.025924
2564.4084,0.025340
2566.2721,0.025069
2568.1358,0.025315
2569.9994,0.025750
2571.8631,0.026251
2573.7268,0.026608
2575.5904,0.026487
2577.4541,0.026640
2579.3178,0.026585
2581.1815,0.026519
2583.0451,0.026785
2584.9088,0.026941
2586.7725,0.027229
2588.6361,0.027581
2590.4998,0.027767
2592.3635,0.027672
2594.2271,0.027730
2596.0908,0.028192
2597.9545,0.028453
2599.8181,0.028137
2601.6818,0.028153
2603.5455,0.028552
2605.4091,0.028866
2607.2728,0.028965
2609.1365,0.029322
2611.0002,0.029688
2612.8638,0.029651
2614.7275,0.029536
2616.5912,0.029775
2618.4548,0.029915
2620.3185,0.030307
2622.1822,0.030595
2624.0458,0.030820
2625.9095,0.031034
2627.7732,0.031185
2629.6368,0.031408
2631.5005,0.031542
2633.3642,0.031498
2635.2279,0.031937
2637.0915,0.032131
2638.9552,0.032160
2640.8189,0.032171
2642.6825,0.032134
2644.5462,0.032304
2646.4099,0.032717
2648.2735,0.033033
2650.1372,0.033131
2652.0009,0.033261
2653.8645,0.033275
2655.7282,0.033145
2657.5919,0.033158
2659.4555,0.033269
2661.3192,0.033377
2663.1829,0.033315
2665.0466,0.033073
2666.9102,0.033019
2668.7739,0.033381
2670.6376,0.033612
2672.5012,0.033814
2674.3649,0.033966
2676.2286,0.033929
2678.0922,0.033955
2679.9559,0.034167
2681.8196,0.034197
2683.6832,0.034390
2685.5469,0.034654
2687.4106,0.034849
2689.2742,0.035103
2691.1379,0.035190
2693.0016,0.035127
2694.8653,0.035271
2696.7289,0.035581
2698.5926,0.035647
2700.4563,0.035711
2702.3199,0.036008
2704.1836,0.036314
2706.0473,0.036421
2707.9109,0.036487
2709.7746,0.036585
2711.6383,0.036782
2713.5019,0.037215
2715.3656,0.037441
2717.2293,0.037539
2719.0930,0.037811
2720.9566,0.038278
2722.8203,0.038565
2724.6840,0.038788
2726.5476,0.038923
2728.4113,0.039028
2730.2750,0.039214
2732.1386,0.039767
2734.0023,0.039973
2735.8660,0.040141
2737.7296,0.040329
2739.5933,0.040272
2741.4570,0.040471
2743.3206,0.041217
2745.1843,0.041575
2747.0480,0.041692
2748.9117,0.041729
2750.7753,0.041910
2752.6390,0.042326
2754.5027,0.042756
2756.3663,0.042923
2758.2300,0.042977
2760.0937,0.043312
2761.9573,0.043831
2763.8210,0.044016
2765.6847,0.044188
2767.5483,0.044521
2769.4120,0.044963
2771.2757,0.045319
2773.1394,0.045611
2775.0030,0.045808
2776.8667,0.046042
2778.7304,0.046377
2780.5940,0.046769
2782.4577,0.046893
2784.3214,0.047051
2786.1850,0.047560
2788.0487,0.048174
2789.9124,0.048284
2791.7760,0.048396
2793.6397,0.048908
2795.5034,0.049081
2797.3670,0.049037
2799.2307,0.049423
2801.0944,0.049894
2802.9581,0.050273
2804.8217,0.050683
2806.6854,0.051210
2808.5491,0.051589
2810.4127,0.051775
2812.2764,0.051962
2814.1401,0.052173
2816.0037,0.052557
2817.8674,0.053213
2819.7311,0.053569
2821.5947,0.053958
2823.4584,0.054355
2825.3221,0.054722
2827.1857,0.055074
2829.0494,0.055289
2830.9131,0.055801
2832.7768,0.056551
2834.6404,0.057074
2836.5041,0.057589
2838.3678,0.058171
2840.2314,0.058549
2842.0951,0.059082
2843.9588,0.060154
2845.8224,0.061327
2847.6861,0.062494
2849.5498,0.063645
2851.4134,0.064651
2853.2771,0.065172
2855.1408,0.065524
2857.0045,0.065831
2858.8681,0.066512
2860.7318,0.067081
2862.5955,0.067824
2864.4591,0.068642
2866.3228,0.069512
2868.1865,0.070234
2870.0501,0.071154
2871.9138,0.071772
2873.7775,0.071861
2875.6411,0.071561
2877.5048,0.071339
2879.3685,0.071173
2881.2321,0.071101
2883.0958,0.071199
2884.9595,0.071237
2886.8232,0.071008
2888.6868,0.071108
2890.5505,0.071451
2892.4142,0.071691
2894.2778,0.071933
2896.1415,0.072567
2898.0052,0.073024
2899.8688,0.073433
2901.7325,0.073945
2903.5962,0.074748
2905.4598,0.075604
2907.3235,0.076361
2909.1872,0.077066
2911.0509,0.078092
2912.9145,0.079161
2914.7782,0.080215
2916.6419,0.081092
2918.5055,0.081967
2920.3692,0.082719
2922.2329,0.083573
2924.0965,0.084145
2925.9602,0.084702
2927.8239,0.084909
2929.6875,0.085150
2931.5512,0.084775
2933.4149,0.084218
2935.2785,0.083764
2937.1422,0.083311
2939.0059,0.082771
2940.8696,0.082220
2942.7332,0.081687
2944.5969,0.081461
2946.4606,0.081122
2948.3242,0.080886
2950.1879,0.080968
2952.0516,0.081546
2953.9152,0.081697
2955.7789,0.081670
2957.6426,0.081752
2959.5062,0.081902
2961.3699,0.081792
2963.2336,0.081198
2965.0972,0.080437
2966.9609,0.079697
2968.8246,0.078505
2970.6883,0.077643
2972.5519,0.076954
2974.4156,0.076171
2976.2793,0.075139
2978.1429,0.074314
2980.0066,0.073271
2981.8703,0.072169
2983.7339,0.071271
2985.5976,0.070580
2987.4613,0.070036
2989.3249,0.069487
2991.1886,0.068851
2993.0523,0.068453
2994.9160,0.068126
2996.7796,0.068110
2998.6433,0.067983
3000.5070,0.068159
3002.3706,0.068594
3004.2343,0.069024
3006.0980,0.069353
3007.9616,0.069761
3009.8253,0.070209
3011.6890,0.070698
3013.5526,0.071070
3015.4163,0.071583
3017.2800,0.071914
3019.1436,0.072272
3021.0073,0.072837
3022.8710,0.073917
3024.7347,0.074989
3026.5983,0.075563
3028.4620,0.075926
3030.3257,0.076729
3032.1893,0.077253
3034.0530,0.077624
3035.9167,0.078080
3037.7803,0.078753
3039.6440,0.079376
3041.5077,0.080034
3043.3713,0.080430
3045.2350,0.080630
3047.0987,0.081151
3048.9624,0.082240
3050.8260,0.082881
3052.6897,0.083064
3054.5534,0.083425
3056.4170,0.084231
3058.2807,0.084695
3060.1444,0.084985
3062.0080,0.085403
3063.8717,0.085727
3065.7354,0.085979
3067.5990,0.086174
3069.4627,0.085722
3071.3264,0.085671
3073.1900,0.086198
3075.0537,0.086757
3076.9174,0.086957
3078.7811,0.086856
3080.6447,0.086343
3082.5084,0.086126
3084.3721,0.086069
3086.2357,0.085926
3088.0994,0.085660
3089.9631,0.085420
3091.8267,0.085388
3093.6904,0.085626
3095.5541,0.085629
3097.4177,0.085699
3099.2814,0.085624
3101.1451,0.085548
3103.0087,0.085905
3104.8724,0.086317
3106.7361,0.086216
3108.5998,0.086300
3110.4634,0.086545
3112.3271,0.086969
3114.1908,0.087430
3116.0544,0.087578
3117.9181,0.087346
3119.7818,0.087629
3121.6454,0.087888
3123.5091,0.088363
3125.3728,0.089207
3127.2364,0.089822
3129.1001,0.090272
3130.9638,0.091076
3132.8275,0.091892
3134.6911,0.092736
3136.5548,0.093402
3138.4185,0.093763
3140.2821,0.094057
3142.1458,0.094520
3144.0095,0.095224
3145.8731,0.096378
3147.7368,0.097098
3149.6005,0.097776
3151.4641,0.098633
3153.3278,0.099312
3155.1915,0.100049
3157.0551,0.100910
3158.9188,0.101491
3160.7825,0.102520
3162.6462,0.103673
3164.5098,0.104371
3166.3735,0.104792
3168.2372,0.105707
3170.1008,0.106417
3171.9645,0.107196
3173.8282,0.108168
3175.6918,0.109009
3177.5555,0.109806
3179.4192,0.110758
3181.2828,0.111287
3183.1465,0.111801
3185.0102,0.112239
3186.8739,0.112532
3188.7375,0.113349
3190.6012,0.114553
3192.4649,0.114856
3194.3285,0.115196
3196.1922,0.115999
3198.0559,0.116654
3199.9195,0.117270
3201.7832,0.117615
3203.6469,0.117689
3205.5105,0.118408
3207.3742,0.118790
3209.2379,0.118826
3211.1015,0.119341
3212.9652,0.120166
3214.8289,0.120688
3216.6926,0.120949
3218.5562,0.121012
3220.4199,0.121135
3222.2836,0.121512
3224.1472,0.122212
3226.0109,0.122612
3227.8746,0.123176
3229.7382,0.124002
3231.6019,0.124568
3233.4656,0.124956
3235.3292,0.125708
3237.1929,0.126507
3239.0566,0.126921
3240.9202,0.127018
3242.7839,0.127892
3244.6476,0.128964
3246.5113,0.129466
3248.3749,0.129787
3250.2386,0.130332
3252.1023,0.131202
3253.9659,0.132369
3255.8296,0.133077
3257.6933,0.133152
3259.5569,0.133234
3261.4206,0.134006
3263.2843,0.134866
3265.1479,0.135500
3267.0116,0.136090
3268.8753,0.136605
3270.7390,0.136842
3272.6026,0.136773
3274.4663,0.136420
3276.3300,0.135831
3278.1936,0.135186
3280.0573,0.135635
3281.9210,0.136098
3283.7846,0.135299
3285.6483,0.134032
3287.5120,0.132930
3289.3756,0.132438
3291.2393,0.132480
3293.1030,0.132000
3294.9666,0.130672
3296.8303,0.129278
3298.6940,0.128344
3300.5577,0.127635
3302.4213,0.126807
3304.2850,0.126010
3306.1487,0.124996
3308.0123,0.123772
3309.8760,0.122509
3311.7397,0.120788
3313.6033,0.119597
3315.4670,0.119446
3317.3307,0.118915
3319.1943,0.117752
3321.0580,0.117178
3322.9217,0.116868
3324.7854,0.115849
3326.6490,0.114166
3328.5127,0.113142
3330.3764,0.112736
3332.2400,0.111559
3334.1037,0.110843
3335.9674,0.110794
3337.8310,0.110138
3339.6947,0.109613
3341.5584,0.109122
3343.4220,0.107844
3345.2857,0.106529
3347.1494,0.106017
3349.0130,0.106154
3350.8767,0.105818
3352.7404,0.104670
3354.6041,0.103884
3356.4677,0.103668
3358.3314,0.103258
3360.1951,0.102619
3362.0587,0.101482
3363.9224,0.100300
3365.7861,0.099582
3367.6497,0.099174
3369.5134,0.098798
3371.3771,0.098494
3373.2407,0.098250
3375.1044,0.097746
3376.9681,0.096825
3378.8317,0.096037
3380.6954,0.095429
3382.5591,0.095212
3384.4228,0.094973
3386.2864,0.094323
3388.1501,0.093335
3390.0138,0.092439
3391.8774,0.092123
3393.7411,0.091754
3395.6048,0.091358
3397.4684,0.090906
3399.3321,0.090416
3401.1958,0.090167
3403.0594,0.089521
3404.9231,0.088481
3406.7868,0.087758
3408.6505,0.087548
3410.5141,0.087036
3412.3778,0.086275
3414.2415,0.085658
3416.1051,0.085243
3417.9688,0.085301
3419.8325,0.085050
3421.6961,0.083999
3423.5598,0.082990
3425.4235,0.082050
3427.2871,0.081674
3429.1508,0.081714
3431.0145,0.081049
3432.8781,0.080088
3434.7418,0.079534
3436.6055,0.079081
3438.4692,0.078574
3440.3328,0.077810
3442.1965,0.077677
3444.0602,0.077160
3445.9238,0.076308
3447.7875,0.076025
3449.6512,0.075531
3451.5148,0.074329
3453.3785,0.073069
3455.2422,0.072411
3457.1058,0.072382
3458.9695,0.072122
3460.8332,0.071538
3462.6969,0.070958
3464.5605,0.070002
3466.4242,0.068942
3468.2879,0.068258
3470.1515,0.067835
3472.0152,0.067771
3473.8789,0.067381
3475.7425,0.065668
3477.6062,0.064243
3479.4699,0.064143
3481.3335,0.063699
3483.1972,0.062841
3485.0609,0.062123
3486.9245,0.061280
3488.7882,0.060569
3490.6519,0.059790
3492.5156,0.058919
3494.3792,0.058706
3496.2429,0.058322
3498.1066,0.056928
3499.9702,0.056015
3501.8339,0.055438
3503.6976,0.054461
3505.5612,0.053774
3507.4249,0.053945
3509.2886,0.053910
3511.1522,0.053033
3513.0159,0.051510
3514.8796,0.050454
3516.7432,0.050025
3518.6069,0.049402
3520.4706,0.048496
3522.3343,0.047896
3524.1979,0.047708
3526.0616,0.046865
3527.9253,0.045790
3529.7889,0.045758
3531.6526,0.045459
3533.5163,0.044051
3535.3799,0.043513
3537.2436,0.042934
3539.1073,0.042026
3540.9709,0.040916
3542.8346,0.040172
3544.6983,0.039324
3546.5620,0.038790
3548.4256,0.038433
3550.2893,0.037424
3552.1530,0.036342
3554.0166,0.035594
3555.8803,0.035295
3557.7440,0.034556
3559.6076,0.033846
3561.4713,0.033040
3563.3350,0.032045
3565.1986,0.031229
3567.0623,0.031037
3568.9260,0.030489
3570.7896,0.029173
3572.6533,0.028385
3574.5170,0.028060
3576.3807,0.027499
3578.2443,0.027242
3580.1080,0.026989
3581.9717,0.025581
3583.8353,0.023954
3585.6990,0.023958
3587.5627,0.023713
3589.4263,0.023201
3591.2900,0.023025
3593.1537,0.022041
3595.0173,0.021131
3596.8810,0.020941
3598.7447,0.020919
3600.6084,0.020190
3602.4720,0.018876
3604.3357,0.018369
3606.1994,0.018214
3608.0630,0.017460
3609.9267,0.017076
3611.7904,0.016545
3613.6540,0.015309
3615.5177,0.014645
3617.3814,0.014963
3619.2450,0.014161
3621.1087,0.013163
3622.9724,0.013257
3624.8360,0.013039
3626.6997,0.012490
3628.5634,0.011331
3630.4271,0.010087
3632.2907,0.010302
3634.1544,0.010293
3636.0181,0.009999
3637.8817,0.009888
3639.7454,0.009546
3641.6091,0.009024
3643.4727,0.008411
3645.3364,0.007560
3647.2001,0.006608
3649.0637,0.005875
3650.9274,0.005696
3652.7911,0.005701
3654.6547,0.005436
3656.5184,0.004978
3658.3821,0.004996
3660.2458,0.005030
3662.1094,0.004688
3663.9731,0.003994
3665.8368,0.003386
3667.7004,0.003378
3669.5641,0.002611
3671.4278,0.001852
3673.2914,0.001649
3675.1551,0.000713
3677.0188,-0.000241
3678.8824,0.000096
3680.7461,0.000417
3682.6098,0.001173
3684.4735,0.001075
3686.3371,0.000640
3688.2008,0.000007
3690.0645,-0.000792
3691.9281,-0.000876
3693.7918,-0.000705
3695.6555,-0.000660
3697.5191,-0.000605
3699.3828,-0.000881
3701.2465,-0.001125
3703.1101,-0.001326
3704.9738,-0.001153
3706.8375,-0.000972
3708.7011,-0.001431
3710.5648,-0.002329
3712.4285,-0.002555
3714.2922,-0.002257
3716.1558,-0.001916
3718.0195,-0.001908
3719.8832,-0.001848
3721.7468,-0.001926
3723.6105,-0.001883
3725.4742,-0.001908
3727.3378,-0.002239
3729.2015,-0.002238
3731.0652,-0.002029
3732.9288,-0.002702
3734.7925,-0.003236
3736.6562,-0.002956
3738.5199,-0.002539
3740.3835,-0.002468
3742.2472,-0.002115
3744.1109,-0.002046
3745.9745,-0.002924
3747.8382,-0.002833
3749.7019,-0.003171
3751.5655,-0.003569
3753.4292,-0.003458
3755.2929,-0.003091
3757.1565,-0.002586
3759.0202,-0.001943
3760.8839,-0.001868
3762.7475,-0.001967
3764.6112,-0.001819
3766.4749,-0.001791
3768.3386,-0.001953
3770.2022,-0.002295
3772.0659,-0.002296
3773.9296,-0.002407
3775.7932,-0.002309
3777.6569,-0.001925
3779.5206,-0.002084
3781.3842,-0.002836
3783.2479,-0.002335
3785.1116,-0.001956
3786.9752,-0.002287
3788.8389,-0.002572
3790.7026,-0.002297
3792.5662,-0.001963
3794.4299,-0.001957
3796.2936,-0.002071
3798.1573,-0.001895
3800.0209,-0.001676
3801.8846,-0.002230
3803.7483,-0.002524
3805.6119,-0.002450
3807.4756,-0.002922
3809.3393,-0.002886
3811.2029,-0.002756
3813.0666,-0.002832
3814.9303,-0.002862
3816.7939,-0.003124
3818.6576,-0.002862
3820.5213,-0.002655
3822.3850,-0.002992
3824.2486,-0.002752
3826.1123,-0.002474
3827.9760,-0.002411
3829.8396,-0.002338
3831.7033,-0.002110
3833.5670,-0.002045
3835.4306,-0.002383
3837.2943,-0.002991
3839.1580,-0.003133
3841.0216,-0.002875
3842.8853,-0.002796
3844.7490,-0.002753
3846.6126,-0.002687
3848.4763,-0.002678
3850.3400,-0.002168
3852.2037,-0.001903
3854.0673,-0.003002
3855.9310,-0.003544
3857.7947,-0.002798
3859.6583,-0.002143
3861.5220,-0.001929
3863.3857,-0.002405
3865.2493,-0.002233
3867.1130,-0.001726
3868.9767,-0.002097
3870.8403,-0.002650
3872.7040,-0.002288
3874.5677,-0.002469
3876.4314,-0.002316
3878.2950,-0.001861
3880.1587,-0.001935
3882.0224,-0.002166
3883.8860,-0.002038
3885.7497,-0.002141
3887.6134,-0.002176
3889.4770,-0.001855
3891.3407,-0.001737
3893.2044,-0.001993
3895.0680,-0.001924
3896.9317,-0.001648
3898.7954,-0.001600
3900.6590,-0.001368
3902.5227,-0.000962
3904.3864,-0.001166
3906.2501,-0.001254
3908.1137,-0.001444
3909.9774,-0.001440
3911.8411,-0.001584
3913.7047,-0.001750
3915.5684,-0.001593
3917.4321,-0.001712
3919.2957,-0.001762
3921.1594,-0.001216
3923.0231,-0.001413
3924.8867,-0.001694
3926.7504,-0.001501
3928.6141,-0.001096
3930.4777,-0.000794
3932.3414,-0.000902
3934.2051,-0.001355
3936.0688,-0.001329
3937.9324,-0.000759
3939.7961,-0.000631
3941.6598,-0.001038
3943.5234,-0.001062
3945.3871,-0.001029
3947.2508,-0.001204
3949.1144,-0.001309
3950.9781,-0.001216
3952.8418,-0.000935
3954.7054,-0.000749
3956.5691,-0.001090
3958.4328,-0.001356
3960.2965,-0.001034
3962.1601,-0.000680
3964.0238,-0.000876
3965.8875,-0.000746
3967.7511,-0.000775
3969.6148,-0.000951
3971.4785,-0.000984
3973.3421,-0.001142
3975.2058,-0.001076
3977.0695,-0.000703
3978.9331,-0.000626
3980.7968,-0.000821
3982.6605,-0.001057
3984.5241,-0.000618
3986.3878,-0.000554
3988.2515,-0.000638
3990.1152,-0.000801
3991.9788,-0.000922
3993.8425,-0.000970
3995.7062,-0.000935
3997.5698,-0.000850
3999.4335,-0.000808
