Wavenumber,Intensity
650.4205,0.351826
652.2841,0.349480
654.1478,0.352901
656.0115,0.349904
657.8751,0.347196
659.7388,0.343143
661.6025,0.343254
663.4661,0.340577
665.3298,0.334997
667.1935,0.330230
669.0571,0.338915
670.9208,0.334206
672.7845,0.331552
674.6481,0.330819
676.5118,0.330028
678.3755,0.325666
680.2392,0.324603
682.1028,0.321294
683.9665,0.319307
685.8302,0.316822
687.6938,0.316565
689.5575,0.315176
691.4212,0.314340
693.2848,0.311939
695.1485,0.309794
697.0122,0.308974
698.8758,0.309883
700.7395,0.309540
702.6032,0.307951
704.4669,0.305277
706.3305,0.303977
708.1942,0.302157
710.0579,0.299307
711.9215,0.294849
713.7852,0.290726
715.6489,0.287426
717.5125,0.283952
719.3762,0.280412
721.2399,0.277943
723.1035,0.274850
724.9672,0.271372
726.8309,0.268160
728.6945,0.266720
730.5582,0.264622
732.4219,0.262135
734.2856,0.260193
736.1492,0.258719
738.0129,0.257090
739.8766,0.256139
741.7402,0.255191
743.6039,0.254942
745.4676,0.254058
747.3312,0.253512
749.1949,0.253632
751.0586,0.254324
752.9222,0.254813
754.7859,0.255399
756.6496,0.254881
758.5132,0.254126
760.3769,0.253159
762.2406,0.252002
764.1043,0.249963
765.9679,0.248043
767.8316,0.245806
769.6953,0.244406
771.5589,0.243325
773.4226,0.242652
775.2863,0.241971
777.1499,0.241183
779.0136,0.240074
780.8773,0.238354
782.7409,0.235661
784.6046,0.232299
786.4683,0.228328
788.3320,0.223580
790.1956,0.218256
792.0593,0.213367
793.9230,0.208751
795.7866,0.205037
797.6503,0.201449
799.5140,0.198046
801.3776,0.195294
803.2413,0.193468
805.1050,0.192124
806.9686,0.190940
808.8323,0.189552
810.6960,0.188228
812.5596,0.186996
814.4233,0.185974
816.2870,0.185143
818.1507,0.184608
820.0143,0.183785
821.8780,0.182288
823.7417,0.180642
825.6053,0.179262
827.4690,0.178558
829.3327,0.178557
831.1963,0.178526
833.0600,0.178963
834.9237,0.180016
836.7873,0.181396
838.6510,0.182812
840.5147,0.184107
842.3784,0.184973
844.2420,0.185598
846.1057,0.185980
847.9694,0.186236
849.8330,0.186472
851.6967,0.186604
853.5604,0.186317
855.4240,0.185852
857.2877,0.184530
859.1514,0.182576
861.0150,0.180504
862.8787,0.178228
864.7424,0.175558
866.6060,0.172916
868.4697,0.170218
870.3334,0.167705
872.1971,0.164915
874.0607,0.162000
875.9244,0.159239
877.7881,0.157033
879.6517,0.155497
881.5154,0.154694
883.3791,0.154666
885.2427,0.155281
887.1064,0.156776
888.9701,0.159259
890.8337,0.162208
892.6974,0.165093
894.5611,0.167681
896.4247,0.170024
898.2884,0.171824
900.1521,0.173446
902.0158,0.174820
903.8794,0.176042
905.7431,0.177372
907.6068,0.179321
909.4704,0.181628
911.3341,0.184367
913.1978,0.187315
915.0614,0.190330
916.9251,0.192962
918.7888,0.194936
920.6524,0.196200
922.5161,0.196774
924.3798,0.196299
926.2435,0.194989
928.1071,0.193145
929.9708,0.190888
931.8345,0.188131
933.6981,0.185048
935.5618,0.182017
937.4255,0.179406
939.2891,0.177513
941.1528,0.176579
943.0165,0.176376
944.8801,0.176620
946.7438,0.177240
948.6075,0.178277
950.4711,0.179543
952.3348,0.181258
954.1985,0.183623
956.0622,0.186850
957.9258,0.191128
959.7895,0.196681
961.6532,0.203385
963.5168,0.211265
965.3805,0.219797
967.2442,0.228783
969.1078,0.238230
970.9715,0.248840
972.8352,0.261409
974.6988,0.276702
976.5625,0.295102
978.4262,0.317033
980.2899,0.341879
982.1535,0.368782
984.0172,0.395757
985.8809,0.421047
987.7445,0.442270
989.6082,0.458620
991.4719,0.470433
993.3355,0.479307
995.1992,0.486958
997.0629,0.495595
998.9265,0.505723
1000.7902,0.517803
1002.6539,0.531492
1004.5175,0.546692
1006.3812,0.562112
1008.2449,0.577511
1010.1086,0.592388
1011.9722,0.606671
1013.8359,0.618477
1015.6996,0.627710
1017.5632,0.632997
1019.4269,0.634508
1021.2906,0.631793
1023.1542,0.626217
1025.0179,0.618522
1026.8816,0.610100
1028.7452,0.600349
1030.6089,0.589385
1032.4726,0.576615
1034.3362,0.563094
1036.1999,0.548252
1038.0636,0.532104
1039.9273,0.515197
1041.7909,0.498503
1043.6546,0.482264
1045.5183,0.468258
1047.3819,0.456912
1049.2456,0.447577
1051.1093,0.438957
1052.9729,0.430414
1054.8366,0.420749
1056.7003,0.410472
1058.5639,0.400184
1060.4276,0.391782
1062.2913,0.386501
1064.1550,0.385100
1066.0186,0.387176
1067.8823,0.391910
1069.7460,0.397211
1071.6096,0.400972
1073.4733,0.400684
1075.3370,0.395125
1077.2006,0.383521
1079.0643,0.367294
1080.9280,0.348207
1082.7916,0.328511
1084.6553,0.309956
1086.5190,0.294266
1088.3826,0.282524
1090.2463,0.275296
1092.1100,0.272119
1093.9737,0.272277
1095.8373,0.274520
1097.7010,0.277637
1099.5647,0.280315
1101.4283,0.282128
1103.2920,0.282704
1105.1557,0.282392
1107.0193,0.281339
1108.8830,0.279531
1110.7467,0.277062
1112.6103,0.274193
1114.4740,0.270686
1116.3377,0.266659
1118.2014,0.262209
1120.0650,0.257623
1121.9287,0.252843
1123.7924,0.247994
1125.6560,0.243154
1127.5197,0.238613
1129.3834,0.234619
1131.2470,0.231669
1133.1107,0.229925
1134.9744,0.229816
1136.8380,0.231492
1138.7017,0.234558
1140.5654,0.238300
1142.4290,0.241990
1144.2927,0.244380
1146.1564,0.244581
1148.0201,0.241790
1149.8837,0.235888
1151.7474,0.226908
1153.6111,0.215457
1155.4747,0.202533
1157.3384,0.189071
1159.2021,0.175678
1161.0657,0.163018
1162.9294,0.151463
1164.7931,0.141338
1166.6567,0.132535
1168.5204,0.124884
1170.3841,0.118337
1172.2477,0.112849
1174.1114,0.108244
1175.9751,0.104536
1177.8388,0.101750
1179.7024,0.099883
1181.5661,0.098885
1183.4298,0.098755
1185.2934,0.099394
1187.1571,0.100619
1189.0208,0.102338
1190.8844,0.104465
1192.7481,0.106881
1194.6118,0.109382
1196.4754,0.111754
1198.3391,0.113858
1200.2028,0.115560
1202.0665,0.116715
1203.9301,0.117292
1205.7938,0.117428
1207.6575,0.117220
1209.5211,0.116971
1211.3848,0.116901
1213.2485,0.117191
1215.1121,0.117974
1216.9758,0.119236
1218.8395,0.120946
1220.7031,0.123069
1222.5668,0.125384
1224.4305,0.127813
1226.2941,0.130235
1228.1578,0.132386
1230.0215,0.134180
1231.8852,0.135714
1233.7488,0.137006
1235.6125,0.137961
1237.4762,0.138693
1239.3398,0.139288
1241.2035,0.139792
1243.0672,0.140367
1244.9308,0.140765
1246.7945,0.141061
1248.6582,0.141513
1250.5218,0.141966
1252.3855,0.142282
1254.2492,0.142678
1256.1129,0.142853
1257.9765,0.142840
1259.8402,0.142845
1261.7039,0.142634
1263.5675,0.142173
1265.4312,0.141771
1267.2949,0.141245
1269.1585,0.140670
1271.0222,0.140149
1272.8859,0.139621
1274.7495,0.138925
1276.6132,0.138319
1278.4769,0.137844
1280.3405,0.137526
1282.2042,0.137250
1284.0679,0.137036
1285.9316,0.137105
1287.7952,0.137722
1289.6589,0.138627
1291.5226,0.139735
1293.3862,0.141302
1295.2499,0.143278
1297.1136,0.145474
1298.9772,0.147790
1300.8409,0.150116
1302.7046,0.152397
1304.5682,0.154498
1306.4319,0.156505
1308.2956,0.158177
1310.1592,0.159423
1312.0229,0.160809
1313.8866,0.162062
1315.7503,0.162697
1317.6139,0.163564
1319.4776,0.164358
1321.3413,0.164440
1323.2049,0.164415
1325.0686,0.164613
1326.9323,0.164673
1328.7959,0.164944
1330.6596,0.165579
1332.5233,0.166190
1334.3869,0.166243
1336.2506,0.166724
1338.1143,0.168748
1339.9780,0.171556
1341.8416,0.172085
1343.7053,0.171580
1345.5690,0.171785
1347.4326,0.172499
1349.2963,0.173355
1351.1600,0.173933
1353.0236,0.174581
1354.8873,0.175543
1356.7510,0.175613
1358.6146,0.175157
1360.4783,0.176087
1362.3420,0.179141
1364.2056,0.179979
1366.0693,0.177896
1367.9330,0.176884
1369.7967,0.175994
1371.6603,0.174542
1373.5240,0.175378
1375.3877,0.176187
1377.2513,0.174488
1379.1150,0.173127
1380.9787,0.171544
1382.8423,0.169544
1384.7060,0.168209
1386.5697,0.169534
1388.4333,0.170580
1390.2970,0.168262
1392.1607,0.167012
1394.0244,0.169894
1395.8880,0.173828
1397.7517,0.175973
1399.6154,0.178942
1401.4790,0.179157
1403.3427,0.180148
1405.2064,0.184259
1407.0700,0.186186
1408.9337,0.186514
1410.7974,0.188142
1412.6610,0.188556
1414.5247,0.187030
1416.3884,0.186272
1418.2520,0.190001
1420.1157,0.191924
1421.9794,0.187200
1423.8431,0.184595
1425.7067,0.182134
1427.5704,0.178983
1429.4341,0.178208
1431.2977,0.176500
1433.1614,0.173046
1435.0251,0.172963
1436.8887,0.178213
1438.7524,0.177524
1440.6161,0.174496
1442.4797,0.174008
1444.3434,0.174068
1446.2071,0.175245
1448.0707,0.178131
1449.9344,0.177746
1451.7981,0.174522
1453.6618,0.170994
1455.5254,0.171198
1457.3891,0.176657
1459.2528,0.171549
1461.1164,0.162225
1462.9801,0.156714
1464.8438,0.154542
1466.7074,0.149032
1468.5711,0.141071
1470.4348,0.135027
1472.2984,0.132579
1474.1621,0.128480
1476.0258,0.122922
1477.8895,0.117330
1479.7531,0.112337
1481.6168,0.108285
1483.4805,0.103975
1485.3441,0.100357
1487.2078,0.098794
1489.0715,0.098810
1490.9351,0.097565
1492.7988,0.093867
1494.6625,0.092325
1496.5261,0.094397
1498.3898,0.095758
1500.2535,0.094059
1502.1171,0.091759
1503.9808,0.091591
1505.8445,0.098808
1507.7082,0.109534
1509.5718,0.108044
1511.4355,0.106897
1513.2992,0.108249
1515.1628,0.110703
1517.0265,0.114914
1518.8902,0.116720
1520.7538,0.121098
1522.6175,0.126986
1524.4812,0.128149
1526.3448,0.131146
1528.2085,0.133229
1530.0722,0.133508
1531.9359,0.136610
1533.7995,0.142693
1535.6632,0.141594
1537.5269,0.140280
1539.3905,0.150750
1541.2542,0.164358
1543.1179,0.164284
1544.9815,0.164207
1546.8452,0.162855
1548.7089,0.162353
1550.5725,0.164192
1552.4362,0.163089
1554.2999,0.161978
1556.1635,0.162787
1558.0272,0.174579
1559.8909,0.191515
1561.7546,0.181540
1563.6182,0.175602
1565.4819,0.176632
1567.3456,0.178463
1569.2092,0.183815
1571.0729,0.186872
1572.9366,0.183753
1574.8002,0.186723
1576.6639,0.196718
1578.5276,0.196982
1580.3912,0.193846
1582.2549,0.194126
1584.1186,0.194962
1585.9822,0.195350
1587.8459,0.195138
1589.7096,0.195018
1591.5733,0.194778
1593.4369,0.194590
1595.3006,0.194277
1597.1643,0.193649
1599.0279,0.192650
1600.8916,0.192425
1602.7553,0.192789
1604.6189,0.193142
1606.4826,0.193709
1608.3463,0.195733
1610.2099,0.197561
1612.0736,0.198439
1613.9373,0.200088
1615.8010,0.207965
1617.6646,0.217736
1619.5283,0.217375
1621.3920,0.218071
1623.2556,0.225881
1625.1193,0.230822
1626.9830,0.232407
1628.8466,0.234198
1630.7103,0.232086
1632.5740,0.229342
1634.4376,0.233053
1636.3013,0.241560
1638.1650,0.238416
1640.0286,0.231717
1641.8923,0.227069
1643.7560,0.223606
1645.6197,0.224348
1647.4833,0.226481
1649.3470,0.220091
1651.2107,0.215759
1653.0743,0.224645
1654.9380,0.223463
1656.8017,0.211641
1658.6653,0.203575
1660.5290,0.197806
1662.3927,0.193008
1664.2563,0.185688
1666.1200,0.176428
1667.9837,0.169404
1669.8474,0.163135
1671.7110,0.154466
1673.5747,0.146031
1675.4384,0.138555
1677.3020,0.129133
1679.1657,0.120627
1681.0294,0.112547
1682.8930,0.105779
1684.7567,0.098931
1686.6204,0.090870
1688.4840,0.084247
1690.3477,0.077683
1692.2114,0.071483
1694.0750,0.066228
1695.9387,0.060848
1697.8024,0.055797
1699.6661,0.051752
1701.5297,0.047652
1703.3934,0.044804
1705.2571,0.042366
1707.1207,0.039622
1708.9844,0.037700
1710.8481,0.035893
1712.7117,0.034445
1714.5754,0.033265
1716.4391,0.031772
1718.3027,0.029883
1720.1664,0.029001
1722.0301,0.028429
1723.8937,0.027753
1725.7574,0.026909
1727.6211,0.026320
1729.4848,0.025961
1731.3484,0.025963
1733.2121,0.025654
1735.0758,0.025333
1736.9394,0.025469
1738.8031,0.025695
1740.6668,0.025591
1742.5304,0.025468
1744.3941,0.025144
1746.2578,0.024703
1748.1214,0.023474
1749.9851,0.021443
1751.8488,0.019134
1753.7125,0.017695
1755.5761,0.016482
1757.4398,0.015060
1759.3035,0.013868
1761.1671,0.012690
1763.0308,0.011405
1764.8945,0.011198
1766.7581,0.011058
1768.6218,0.010699
1770.4855,0.010169
1772.3491,0.009177
1774.2128,0.008763
1776.0765,0.009107
1777.9401,0.009138
1779.8038,0.008893
1781.6675,0.008406
1783.5312,0.008071
1785.3948,0.007818
1787.2585,0.008000
1789.1222,0.008152
1790.9858,0.007502
1792.8495,0.006611
1794.7132,0.006818
1796.5768,0.007097
1798.4405,0.007031
1800.3042,0.006473
1802.1678,0.006161
1804.0315,0.006064
1805.8952,0.006218
1807.7589,0.006304
1809.6225,0.005918
1811.4862,0.005447
1813.3499,0.005554
1815.2135,0.005676
1817.0772,0.005754
1818.9409,0.005705
1820.8045,0.005672
1822.6682,0.005354
1824.5319,0.004814
1826.3955,0.004501
1828.2592,0.004513
1830.1229,0.004001
1831.9865,0.003951
1833.8502,0.004196
1835.7139,0.004220
1837.5776,0.004041
1839.4412,0.004210
1841.3049,0.004414
1843.1686,0.004241
1845.0322,0.003396
1846.8959,0.003108
1848.7596,0.003277
1850.6232,0.003550
1852.4869,0.003523
1854.3506,0.003436
1856.2142,0.003540
1858.0779,0.003964
1859.9416,0.003841
1861.8052,0.003519
1863.6689,0.003367
1865.5326,0.003450
1867.3963,0.002968
1869.2599,0.001977
1871.1236,0.001852
1872.9873,0.002646
1874.8509,0.002840
1876.7146,0.002693
1878.5783,0.002644
1880.4419,0.002919
1882.3056,0.002976
1884.1693,0.002640
1886.0329,0.002488
1887.8966,0.002471
1889.7603,0.001939
1891.6240,0.001805
1893.4876,0.001838
1895.3513,0.001708
1897.2150,0.001835
1899.0786,0.002215
1900.9423,0.002299
1902.8060,0.001891
1904.6696,0.001302
1906.5333,0.001606
1908.3970,0.001988
1910.2606,0.001658
1912.1243,0.001292
1913.9880,0.001755
1915.8516,0.001817
1917.7153,0.001218
1919.5790,0.000809
1921.4427,0.000628
1923.3063,0.000258
1925.1700,-0.000005
1927.0337,0.000163
1928.8973,0.000675
1930.7610,0.000338
1932.6247,0.000041
1934.4883,0.000200
1936.3520,0.000187
1938.2157,-0.000243
1940.0793,-0.001065
1941.9430,-0.001679
1943.8067,-0.001441
1945.6704,-0.001595
1947.5340,-0.002102
1949.3977,-0.002575
1951.2614,-0.002144
1953.1250,-0.001138
1954.9887,-0.000651
1956.8524,-0.002107
1958.7160,-0.004046
1960.5797,-0.004735
1962.4434,-0.004285
1964.3070,-0.003868
1966.1707,-0.004746
1968.0344,-0.006445
1969.8980,-0.006822
1971.7617,-0.005927
1973.6254,-0.005537
1975.4891,-0.006679
1977.3527,-0.007189
1979.2164,-0.007720
1981.0801,-0.008421
1982.9437,-0.008041
1984.8074,-0.006189
1986.6711,-0.005149
1988.5347,-0.005648
1990.3984,-0.005803
1992.2621,-0.005320
1994.1257,-0.004765
1995.9894,-0.005208
1997.8531,-0.006073
1999.7167,-0.005641
2001.5804,-0.005300
2003.4441,-0.005810
2005.3078,-0.006403
2007.1714,-0.007158
2009.0351,-0.008047
2010.8988,-0.008521
2012.7624,-0.008073
2014.6261,-0.007352
2016.4898,-0.007822
2018.3534,-0.007860
2020.2171,-0.007554
2022.0808,-0.007747
2023.9444,-0.007477
2025.8081,-0.008066
2027.6718,-0.009054
2029.5355,-0.008698
2031.3991,-0.007657
2033.2628,-0.006575
2035.1265,-0.006712
2036.9901,-0.006449
2038.8538,-0.005352
2040.7175,-0.004661
2042.5811,-0.005011
2044.4448,-0.004836
2046.3085,-0.003387
2048.1721,-0.002545
2050.0358,-0.001628
2051.8995,-0.000538
2053.7631,-0.000721
2055.6268,-0.000645
2057.4905,0.000507
2059.3542,0.001840
2061.2178,0.002066
2063.0815,0.002234
2064.9452,0.002547
2066.8088,0.002701
2068.6725,0.002802
2070.5362,0.002424
2072.3998,0.002607
2074.2635,0.003600
2076.1272,0.003646
2077.9908,0.003750
2079.8545,0.003957
2081.7182,0.004485
2083.5819,0.004801
2085.4455,0.004607
2087.3092,0.004529
2089.1729,0.004601
2091.0365,0.004766
2092.9002,0.005044
2094.7639,0.004710
2096.6275,0.004276
2098.4912,0.004606
2100.3549,0.004809
2102.2185,0.005038
2104.0822,0.005568
2105.9459,0.005771
2107.8095,0.005660
2109.6732,0.005730
2111.5369,0.006011
2113.4006,0.005966
2115.2642,0.006298
2117.1279,0.006230
2118.9916,0.005857
2120.8552,0.005432
2122.7189,0.005111
2124.5826,0.005202
2126.4462,0.005143
2128.3099,0.004585
2130.1736,0.003958
2132.0372,0.002982
2133.9009,0.002201
2135.7646,0.001791
2137.6282,0.000992
2139.4919,0.000021
2141.3556,-0.000014
2143.2193,0.000229
2145.0829,-0.000623
2146.9466,-0.001096
2148.8103,-0.001105
2150.6739,-0.002021
2152.5376,-0.002698
2154.4013,-0.003865
2156.2649,-0.006218
2158.1286,-0.007211
2159.9923,-0.006264
2161.8559,-0.005320
2163.7196,-0.003521
2165.5833,-0.001855
2167.4470,-0.001655
2169.3106,-0.001555
2171.1743,-0.001758
2173.0380,-0.002684
2174.9016,-0.001760
2176.7653,-0.000622
2178.6290,-0.000689
2180.4926,-0.001433
2182.3563,-0.001837
2184.2200,-0.002057
2186.0836,-0.001837
2187.9473,-0.000418
2189.8110,0.000150
2191.6746,0.000282
2193.5383,0.000855
2195.4020,0.000737
2197.2657,0.000663
2199.1293,0.000144
2200.9930,-0.000298
2202.8567,0.000169
2204.7203,0.001125
2206.5840,0.001362
2208.4477,0.000609
2210.3113,0.000407
2212.1750,0.000621
2214.0387,0.000266
2215.9023,-0.000175
2217.7660,-0.000345
2219.6297,0.000533
2221.4934,0.000958
2223.3570,0.000522
2225.2207,0.001359
2227.0844,0.002479
2228.9480,0.002343
2230.8117,0.002368
2232.6754,0.002545
2234.5390,0.002112
2236.4027,0.001836
2238.2664,0.002059
2240.1300,0.002213
2241.9937,0.002692
2243.8574,0.002548
2245.7210,0.002064
2247.5847,0.002691
2249.4484,0.003423
2251.3121,0.003210
2253.1757,0.002851
2255.0394,0.003008
2256.9031,0.003112
2258.7667,0.002971
2260.6304,0.003884
2262.4941,0.004333
2264.3577,0.004012
2266.2214,0.004087
2268.0851,0.004010
2269.9487,0.004101
2271.8124,0.004316
2273.6761,0.004203
2275.5397,0.004545
2277.4034,0.005042
2279.2671,0.005123
2281.1308,0.005331
2282.9944,0.006011
2284.8581,0.005933
2286.7218,0.005603
2288.5854,0.005824
2290.4491,0.005923
2292.3128,0.005886
2294.1764,0.005974
2296.0401,0.006069
2297.9038,0.005940
2299.7674,0.005874
2301.6311,0.005910
2303.4948,0.006099
2305.3585,0.006442
2307.2221,0.006302
2309.0858,0.006022
2310.9495,0.006245
2312.8131,0.006574
2314.6768,0.006376
2316.5405,0.006142
2318.4041,0.006163
2320.2678,0.006286
2322.1315,0.006424
2323.9951,0.006412
2325.8588,0.006479
2327.7225,0.006470
2329.5861,0.005731
2331.4498,0.004977
2333.3135,0.005136
2335.1772,0.005734
2337.0408,0.006062
2338.9045,0.006238
2340.7682,0.006479
2342.6318,0.006412
2344.4955,0.005750
2346.3592,0.005346
2348.2228,0.005839
2350.0865,0.006335
2351.9502,0.006164
2353.8138,0.005687
2355.6775,0.005456
2357.5412,0.005627
2359.4049,0.005190
2361.2685,0.004323
2363.1322,0.004924
2364.9959,0.006075
2366.8595,0.006088
2368.7232,0.006274
2370.5869,0.007047
2372.4505,0.008057
2374.3142,0.008423
2376.1779,0.008445
2378.0415,0.008496
2379.9052,0.008731
2381.7689,0.009069
2383.6325,0.009326
2385.4962,0.009416
2387.3599,0.009533
2389.2236,0.009666
2391.0872,0.009725
2392.9509,0.009907
2394.8146,0.010004
2396.6782,0.010162
2398.5419,0.010280
2400.4056,0.010207
2402.2692,0.010265
2404.1329,0.010393
2405.9966,0.010406
2407.8602,0.010324
2409.7239,0.010258
2411.5876,0.010286
2413.4512,0.010690
2415.3149,0.011027
2417.1786,0.010941
2419.0423,0.010941
2420.9059,0.011205
2422.7696,0.011483
2424.6333,0.011844
2426.4969,0.011768
2428.3606,0.011618
2430.2243,0.011907
2432.0879,0.012362
2433.9516,0.012692
2435.8153,0.013032
2437.6789,0.013191
2439.5426,0.013176
2441.4063,0.013069
2443.2700,0.013136
2445.1336,0.013500
2446.9973,0.013709
2448.8610,0.013844
2450.7246,0.014257
2452.5883,0.014641
2454.4520,0.014548
2456.3156,0.014226
2458.1793,0.014283
2460.0430,0.014803
2461.9066,0.015139
2463.7703,0.015126
2465.6340,0.015264
2467.4976,0.015610
2469.3613,0.016003
2471.2250,0.016124
2473.0887,0.015993
2474.9523,0.016149
2476.8160,0.016386
2478.6797,0.016480
2480.5433,0.016755
2482.4070,0.016622
2484.2707,0.016489
2486.1343,0.017060
2487.9980,0.017626
2489.8617,0.017667
2491.7253,0.017552
2493.5890,0.017636
2495.4527,0.017978
2497.3164,0.018283
2499.1800,0.018338
2501.0437,0.018294
2502.9074,0.018252
2504.7710,0.018444
2506.6347,0.018831
2508.4984,0.019180
2510.3620,0.019484
2512.2257,0.019514
2514.0894,0.019438
2515.9530,0.019378
2517.8167,0.019392
2519.6804,0.019793
2521.5440,0.020083
2523.4077,0.020118
2525.2714,0.020343
2527.1351,0.020706
2528.9987,0.020906
2530.8624,0.021067
2532.7261,0.021207
2534.5897,0.021258
2536.4534,0.021331
2538.3171,0.021404
2540.1807,0.021700
2542.0444,0.022024
2543.9081,0.022240
2545.7717,0.022599
2547.6354,0.022822
2549.4991,0.022868
2551.3627,0.023306
2553.2264,0.023698
2555.0901,0.023575
2556.9538,0.023533
2558.8174,0.023684
2560.6811,0.023692
2562.5448,0.023941
2564.4084,0.024519
2566.2721,0.025055
2568.1358,0.025415
2569.9994,0.025690
2571.8631,0.025740
2573.7268,0.025937
2575.5904,0.026338
2577.4541,0.026346
2579.3178,0.026256
2581.1815,0.026723
2583.0451,0.027473
2584.9088,0.027899
2586.7725,0.027998
2588.6361,0.028295
2590.4998,0.028802
2592.3635,0.029104
2594.2271,0.029390
2596.0908,0.029914
2597.9545,0.030313
2599.8181,0.030649
2601.6818,0.031077
2603.5455,0.031331
2605.4091,0.031451
2607.2728,0.031835
2609.1365,0.032638
2611.0002,0.033142
2612.8638,0.033441
2614.7275,0.034053
2616.5912,0.034543
2618.4548,0.034860
2620.3185,0.035188
2622.1822,0.035579
2624.0458,0.036107
2625.9095,0.036791
2627.7732,0.037530
2629.6368,0.038055
2631.5005,0.038293
2633.3642,0.038821
2635.2279,0.039442
2637.0915,0.039937
2638.9552,0.040579
2640.8189,0.041074
2642.6825,0.041559
2644.5462,0.042138
2646.4099,0.042599
2648.2735,0.043086
2650.1372,0.043553
2652.0009,0.044033
2653.8645,0.044666
2655.7282,0.045163
2657.5919,0.045512
2659.4555,0.045974
2661.3192,0.046364
2663.1829,0.046617
2665.0466,0.046991
2666.9102,0.047502
2668.7739,0.047911
2670.6376,0.048395
2672.5012,0.048870
2674.3649,0.049268
2676.2286,0.049885
2678.0922,0.050407
2679.9559,0.050683
2681.8196,0.051096
2683.6832,0.051534
2685.5469,0.051838
2687.4106,0.052318
2689.2742,0.052729
2691.1379,0.052959
2693.0016,0.053376
2694.8653,0.053821
2696.7289,0.054233
2698.5926,0.054632
2700.4563,0.055052
2702.3199,0.055697
2704.1836,0.056245
2706.0473,0.056452
2707.9109,0.056716
2709.7746,0.057132
2711.6383,0.057491
2713.5019,0.057906
2715.3656,0.058326
2717.2293,0.058567
2719.0930,0.058794
2720.9566,0.059218
2722.8203,0.059829
2724.6840,0.060359
2726.5476,0.060827
2728.4113,0.061160
2730.2750,0.061342
2732.1386,0.061736
2734.0023,0.062214
2735.8660,0.062524
2737.7296,0.062807
2739.5933,0.063082
2741.4570,0.063376
2743.3206,0.063911
2745.1843,0.064468
2747.0480,0.064876
2748.9117,0.065212
2750.7753,0.065542
2752.6390,0.066052
2754.5027,0.066760
2756.3663,0.067154
2758.2300,0.067328
2760.0937,0.067855
2761.9573,0.068435
2763.8210,0.068973
2765.6847,0.069590
2767.5483,0.070026
2769.4120,0.070444
2771.2757,0.071203
2773.1394,0.072024
2775.0030,0.072628
2776.8667,0.073036
2778.7304,0.073561
2780.5940,0.074349
2782.4577,0.074964
2784.3214,0.075462
2786.1850,0.076156
2788.0487,0.077121
2789.9124,0.077956
2791.7760,0.078426
2793.6397,0.079050
2795.5034,0.079971
2797.3670,0.080829
2799.2307,0.081689
2801.0944,0.082452
2802.9581,0.083167
2804.8217,0.084046
2806.6854,0.084959
2808.5491,0.085627
2810.4127,0.086341
2812.2764,0.087472
2814.1401,0.088505
2816.0037,0.089458
2817.8674,0.090471
2819.7311,0.091312
2821.5947,0.092193
2823.4584,0.093226
2825.3221,0.094366
2827.1857,0.095582
2829.0494,0.096716
2830.9131,0.097864
2832.7768,0.099048
2834.6404,0.100401
2836.5041,0.102083
2838.3678,0.103752
2840.2314,0.105557
2842.0951,0.107148
2843.9588,0.108673
2845.8224,0.110786
2847.6861,0.113132
2849.5498,0.115332
2851.4134,0.117073
2853.2771,0.118110
2855.1408,0.118839
2857.0045,0.119240
2858.8681,0.119189
2860.7318,0.119560
2862.5955,0.120432
2864.4591,0.121337
2866.3228,0.122568
2868.1865,0.123924
2870.0501,0.125264
2871.9138,0.126886
2873.7775,0.128307
2875.6411,0.129037
2877.5048,0.129455
2879.3685,0.130141
2881.2321,0.131324
2883.0958,0.132076
2884.9595,0.132188
2886.8232,0.132421
2888.6868,0.132991
2890.5505,0.133384
2892.4142,0.133681
2894.2778,0.134313
2896.1415,0.135274
2898.0052,0.136337
2899.8688,0.137498
2901.7325,0.138835
2903.5962,0.139832
2905.4598,0.140385
2907.3235,0.141064
2909.1872,0.142092
2911.0509,0.143735
2912.9145,0.145466
2914.7782,0.146952
2916.6419,0.148647
2918.5055,0.150317
2920.3692,0.151691
2922.2329,0.152805
2924.0965,0.153362
2925.9602,0.153374
2927.8239,0.152947
2929.6875,0.152122
2931.5512,0.150731
2933.4149,0.149150
2935.2785,0.147567
2937.1422,0.145727
2939.0059,0.143468
2940.8696,0.141134
2942.7332,0.138924
2944.5969,0.136868
2946.4606,0.135124
2948.3242,0.133671
2950.1879,0.132267
2952.0516,0.131187
2953.9152,0.130178
2955.7789,0.128783
2957.6426,0.127441
2959.5062,0.126465
2961.3699,0.125773
2963.2336,0.125233
2965.0972,0.124533
2966.9609,0.124069
2968.8246,0.123636
2970.6883,0.123072
2972.5519,0.122739
2974.4156,0.122345
2976.2793,0.121983
2978.1429,0.121573
2980.0066,0.120963
2981.8703,0.120652
2983.7339,0.120355
2985.5976,0.120111
2987.4613,0.120324
2989.3249,0.120552
2991.1886,0.120462
2993.0523,0.120573
2994.9160,0.120942
2996.7796,0.121211
2998.6433,0.121520
3000.5070,0.122236
3002.3706,0.122953
3004.2343,0.123752
3006.0980,0.124712
3007.9616,0.125643
3009.8253,0.126789
3011.6890,0.128024
3013.5526,0.128986
3015.4163,0.130195
3017.2800,0.131550
3019.1436,0.132614
3021.0073,0.133864
3022.8710,0.135318
3024.7347,0.136701
3026.5983,0.138348
3028.4620,0.140111
3030.3257,0.142124
3032.1893,0.143942
3034.0530,0.145123
3035.9167,0.146264
3037.7803,0.147838
3039.6440,0.149462
3041.5077,0.150945
3043.3713,0.152358
3045.2350,0.154076
3047.0987,0.155712
3048.9624,0.157176
3050.8260,0.158778
3052.6897,0.160550
3054.5534,0.162311
3056.4170,0.163833
3058.2807,0.165138
3060.1444,0.166449
3062.0080,0.167902
3063.8717,0.169800
3065.7354,0.171854
3067.5990,0.173388
3069.4627,0.174239
3071.3264,0.175666
3073.1900,0.177639
3075.0537,0.179224
3076.9174,0.180487
3078.7811,0.181931
3080.6447,0.183440
3082.5084,0.184975
3084.3721,0.186323
3086.2357,0.187742
3088.0994,0.188982
3089.9631,0.190420
3091.8267,0.191873
3093.6904,0.193046
3095.5541,0.194578
3097.4177,0.196490
3099.2814,0.198298
3101.1451,0.200052
3103.0087,0.201511
3104.8724,0.202952
3106.7361,0.204685
3108.5998,0.206538
3110.4634,0.207798
3112.3271,0.209060
3114.1908,0.210736
3116.0544,0.212755
3117.9181,0.214672
3119.7818,0.216277
3121.6454,0.217933
3123.5091,0.220395
3125.3728,0.222920
3127.2364,0.224667
3129.1001,0.226154
3130.9638,0.227967
3132.8275,0.230308
3134.6911,0.232785
3136.5548,0.234483
3138.4185,0.236244
3140.2821,0.238067
3142.1458,0.240188
3144.0095,0.242578
3145.8731,0.244783
3147.7368,0.246553
3149.6005,0.248669
3151.4641,0.251046
3153.3278,0.253014
3155.1915,0.254764
3157.0551,0.256933
3158.9188,0.258945
3160.7825,0.261032
3162.6462,0.262963
3164.5098,0.264915
3166.3735,0.266883
3168.2372,0.268971
3170.1008,0.270912
3171.9645,0.272796
3173.8282,0.274666
3175.6918,0.276924
3177.5555,0.278832
3179.4192,0.280612
3181.2828,0.282144
3183.1465,0.283888
3185.0102,0.285791
3186.8739,0.287247
3188.7375,0.288482
3190.6012,0.290426
3192.4649,0.292279
3194.3285,0.293547
3196.1922,0.294750
3198.0559,0.296600
3199.9195,0.297556
3201.7832,0.298436
3203.6469,0.299867
3205.5105,0.300983
3207.3742,0.301479
3209.2379,0.302654
3211.1015,0.304060
3212.9652,0.304859
3214.8289,0.305697
3216.6926,0.307065
3218.5562,0.307174
3220.4199,0.307503
3222.2836,0.308398
3224.1472,0.309182
3226.0109,0.309672
3227.8746,0.310421
3229.7382,0.311007
3231.6019,0.311386
3233.4656,0.311472
3235.3292,0.311471
3237.1929,0.311912
3239.0566,0.312816
3240.9202,0.312953
3242.7839,0.313408
3244.6476,0.313780
3246.5113,0.314379
3248.3749,0.315073
3250.2386,0.315494
3252.1023,0.315326
3253.9659,0.315527
3255.8296,0.316082
3257.6933,0.316245
3259.5569,0.316107
3261.4206,0.316587
3263.2843,0.316525
3265.1479,0.316090
3267.0116,0.315946
3268.8753,0.315957
3270.7390,0.315402
3272.6026,0.314787
3274.4663,0.314408
3276.3300,0.314390
3278.1936,0.314290
3280.0573,0.314477
3281.9210,0.313886
3283.7846,0.313164
3285.6483,0.312770
3287.5120,0.312283
3289.3756,0.311215
3291.2393,0.310740
3293.1030,0.310441
3294.9666,0.309691
3296.8303,0.308299
3298.6940,0.308090
3300.5577,0.308401
3302.4213,0.307817
3304.2850,0.306536
3306.1487,0.305981
3308.0123,0.305522
3309.8760,0.305147
3311.7397,0.304272
3313.6033,0.303961
3315.4670,0.303962
3317.3307,0.303141
3319.1943,0.301676
3321.0580,0.301141
3322.9217,0.300868
3324.7854,0.300437
3326.6490,0.299413
3328.5127,0.299221
3330.3764,0.298923
3332.2400,0.297891
3334.1037,0.296462
3335.9674,0.295635
3337.8310,0.294849
3339.6947,0.293803
3341.5584,0.292789
3343.4220,0.292207
3345.2857,0.290978
3347.1494,0.289956
3349.0130,0.289464
3350.8767,0.288604
3352.7404,0.286637
3354.6041,0.285787
3356.4677,0.285301
3358.3314,0.284405
3360.1951,0.282839
3362.0587,0.281350
3363.9224,0.279647
3365.7861,0.278142
3367.6497,0.277266
3369.5134,0.275687
3371.3771,0.273431
3373.2407,0.272624
3375.1044,0.271979
3376.9681,0.270647
3378.8317,0.268523
3380.6954,0.267000
3382.5591,0.265354
3384.4228,0.264324
3386.2864,0.263519
3388.1501,0.261945
3390.0138,0.260069
3391.8774,0.258208
3393.7411,0.256514
3395.6048,0.255291
3397.4684,0.253527
3399.3321,0.251784
3401.1958,0.249260
3403.0594,0.247224
3404.9231,0.246353
3406.7868,0.245699
3408.6505,0.243917
3410.5141,0.242186
3412.3778,0.240461
3414.2415,0.238071
3416.1051,0.235568
3417.9688,0.234445
3419.8325,0.233529
3421.6961,0.231873
3423.5598,0.230067
3425.4235,0.228772
3427.2871,0.226895
3429.1508,0.225201
3431.0145,0.222739
3432.8781,0.220143
3434.7418,0.217996
3436.6055,0.216101
3438.4692,0.214465
3440.3328,0.212888
3442.1965,0.211274
3444.0602,0.210084
3445.9238,0.208027
3447.7875,0.206140
3449.6512,0.204348
3451.5148,0.202745
3453.3785,0.200608
3455.2422,0.198284
3457.1058,0.195750
3458.9695,0.193869
3460.8332,0.191900
3462.6969,0.189892
3464.5605,0.188076
3466.4242,0.186383
3468.2879,0.184220
3470.1515,0.181805
3472.0152,0.179067
3473.8789,0.177164
3475.7425,0.175337
3477.6062,0.173124
3479.4699,0.170347
3481.3335,0.168189
3483.1972,0.166802
3485.0609,0.165067
3486.9245,0.162528
3488.7882,0.160369
3490.6519,0.158575
3492.5156,0.156651
3494.3792,0.154234
3496.2429,0.152090
3498.1066,0.149766
3499.9702,0.147335
3501.8339,0.145076
3503.6976,0.143314
3505.5612,0.141549
3507.4249,0.139958
3509.2886,0.137993
3511.1522,0.135468
3513.0159,0.132704
3514.8796,0.130759
3516.7432,0.128834
3518.6069,0.126628
3520.4706,0.124445
3522.3343,0.122722
3524.1979,0.121315
3526.0616,0.118852
3527.9253,0.116414
3529.7889,0.115385
3531.6526,0.113381
3533.5163,0.110545
3535.3799,0.108178
3537.2436,0.105960
3539.1073,0.103447
3540.9709,0.101638
3542.8346,0.100207
3544.6983,0.098473
3546.5620,0.096347
3548.4256,0.094598
3550.2893,0.092661
3552.1530,0.090776
3554.0166,0.088817
3555.8803,0.086644
3557.7440,0.084463
3559.6076,0.082836
3561.4713,0.080939
3563.3350,0.079323
3565.1986,0.077648
3567.0623,0.075946
3568.9260,0.074823
3570.7896,0.072871
3572.6533,0.070132
3574.5170,0.068021
3576.3807,0.066376
3578.2443,0.064594
3580.1080,0.062258
3581.9717,0.059995
3583.8353,0.058301
3585.6990,0.056856
3587.5627,0.055135
3589.4263,0.053714
3591.2900,0.052040
3593.1537,0.050510
3595.0173,0.049053
3596.8810,0.047223
3598.7447,0.045260
3600.6084,0.043934
3602.4720,0.042712
3604.3357,0.041117
3606.1994,0.038606
3608.0630,0.036233
3609.9267,0.035197
3611.7904,0.034490
3613.6540,0.033103
3615.5177,0.030995
3617.3814,0.028717
3619.2450,0.027148
3621.1087,0.026598
3622.9724,0.025983
3624.8360,0.024465
3626.6997,0.022802
3628.5634,0.020493
3630.4271,0.018585
3632.2907,0.018297
3634.1544,0.017686
3636.0181,0.016813
3637.8817,0.015676
3639.7454,0.013847
3641.6091,0.012345
3643.4727,0.011075
3645.3364,0.009653
3647.2001,0.007597
3649.0637,0.005804
3650.9274,0.005310
3652.7911,0.005150
3654.6547,0.004807
3656.5184,0.003928
3658.3821,0.002644
3660.2458,0.002051
3662.1094,0.001586
3663.9731,0.001117
3665.8368,0.000259
3667.7004,-0.000691
3669.5641,-0.002324
3671.4278,-0.004319
3673.2914,-0.004526
3675.1551,-0.005263
3677.0188,-0.007362
3678.8824,-0.006352
3680.7461,-0.005254
3682.6098,-0.005291
3684.4735,-0.005161
3686.3371,-0.005404
3688.2008,-0.006585
3690.0645,-0.008632
3691.9281,-0.009124
3693.7918,-0.008002
3695.6555,-0.006948
3697.5191,-0.006720
3699.3828,-0.007215
3701.2465,-0.007998
3703.1101,-0.009216
3704.9738,-0.009407
3706.8375,-0.008754
3708.7011,-0.008634
3710.5648,-0.009340
3712.4285,-0.010629
3714.2922,-0.010727
3716.1558,-0.009187
3718.0195,-0.008521
3719.8832,-0.009075
3721.7468,-0.009775
3723.6105,-0.010432
3725.4742,-0.010711
3727.3378,-0.010781
3729.2015,-0.010120
3731.0652,-0.009263
3732.9288,-0.010177
3734.7925,-0.011306
3736.6562,-0.011985
3738.5199,-0.011615
3740.3835,-0.009980
3742.2472,-0.009533
3744.1109,-0.010912
3745.9745,-0.012500
3747.8382,-0.011167
3749.7019,-0.010857
3751.5655,-0.012977
3753.4292,-0.012495
3755.2929,-0.010906
3757.1565,-0.010034
3759.0202,-0.010232
3760.8839,-0.010473
3762.7475,-0.009651
3764.6112,-0.008905
3766.4749,-0.009610
3768.3386,-0.010470
3770.2022,-0.011045
3772.0659,-0.011021
3773.9296,-0.009857
3775.7932,-0.009224
3777.6569,-0.009417
3779.5206,-0.010368
3781.3842,-0.011004
3783.2479,-0.010193
3785.1116,-0.010034
3786.9752,-0.010333
3788.8389,-0.010061
3790.7026,-0.009699
3792.5662,-0.009704
3794.4299,-0.009608
3796.2936,-0.009997
3798.1573,-0.010299
3800.0209,-0.010355
3801.8846,-0.011339
3803.7483,-0.011888
3805.6119,-0.010765
3807.4756,-0.011135
3809.3393,-0.011790
3811.2029,-0.010375
3813.0666,-0.009366
3814.9303,-0.009999
3816.7939,-0.011209
3818.6576,-0.011149
3820.5213,-0.010864
3822.3850,-0.011723
3824.2486,-0.010964
3826.1123,-0.009917
3827.9760,-0.009850
3829.8396,-0.009990
3831.7033,-0.010036
3833.5670,-0.010395
3835.4306,-0.010463
3837.2943,-0.011359
3839.1580,-0.012116
3841.0216,-0.011712
3842.8853,-0.011236
3844.7490,-0.011098
3846.6126,-0.010469
3848.4763,-0.009422
3850.3400,-0.008998
3852.2037,-0.009862
3854.0673,-0.012687
3855.9310,-0.013796
3857.7947,-0.011311
3859.6583,-0.009991
3861.5220,-0.009490
3863.3857,-0.010064
3865.2493,-0.010830
3867.1130,-0.010552
3868.9767,-0.010156
3870.8403,-0.010816
3872.7040,-0.010570
3874.5677,-0.009904
3876.4314,-0.009954
3878.2950,-0.009508
3880.1587,-0.009876
3882.0224,-0.010607
3883.8860,-0.010314
3885.7497,-0.010253
3887.6134,-0.010394
3889.4770,-0.009768
3891.3407,-0.010189
3893.2044,-0.011334
3895.0680,-0.010466
3896.9317,-0.009414
3898.7954,-0.009387
3900.6590,-0.010305
3902.5227,-0.010818
3904.3864,-0.010921
3906.2501,-0.010811
3908.1137,-0.010043
3909.9774,-0.009241
3911.8411,-0.009213
3913.7047,-0.009336
3915.5684,-0.009400
3917.4321,-0.009816
3919.2957,-0.010050
3921.1594,-0.009867
3923.0231,-0.009793
3924.8867,-0.009556
3926.7504,-0.009457
3928.6141,-0.008998
3930.4777,-0.009063
3932.3414,-0.009644
3934.2051,-0.009849
3936.0688,-0.009483
3937.9324,-0.009191
3939.7961,-0.009074
3941.6598,-0.009219
3943.5234,-0.009677
3945.3871,-0.009764
3947.2508,-0.009519
3949.1144,-0.009520
3950.9781,-0.009589
3952.8418,-0.009080
3954.7054,-0.008624
3956.5691,-0.009194
3958.4328,-0.009681
3960.2965,-0.009673
3962.1601,-0.009594
3964.0238,-0.009467
3965.8875,-0.009084
3967.7511,-0.009004
3969.6148,-0.009114
3971.4785,-0.009207
3973.3421,-0.008923
3975.2058,-0.008722
3977.0695,-0.008604
3978.9331,-0.008722
3980.7968,-0.008985
3982.6605,-0.009146
3984.5241,-0.009093
3986.3878,-0.008970
3988.2515,-0.008954
3990.1152,-0.009005
3991.9788,-0.009194
3993.8425,-0.009329
3995.7062,-0.009398
3997.5698,-0.009204
3999.4335,-0.008856
