Wavenumber,Intensity
650.4205,0.279775
652.2841,0.282538
654.1478,0.281744
656.0115,0.280265
657.8751,0.276052
659.7388,0.273224
661.6025,0.274345
663.4661,0.273756
665.3298,0.267253
667.1935,0.268363
669.0571,0.277769
670.9208,0.270649
672.7845,0.262936
674.6481,0.260098
676.5118,0.259301
678.3755,0.257693
680.2392,0.255772
682.1028,0.254388
683.9665,0.252523
685.8302,0.250352
687.6938,0.248197
689.5575,0.247719
691.4212,0.246509
693.2848,0.246381
695.1485,0.244989
697.0122,0.243308
698.8758,0.240973
700.7395,0.238306
702.6032,0.236439
704.4669,0.234171
706.3305,0.229615
708.1942,0.225894
710.0579,0.222885
711.9215,0.220811
713.7852,0.218667
715.6489,0.216450
717.5125,0.214347
719.3762,0.212868
721.2399,0.210796
723.1035,0.208064
724.9672,0.204644
726.8309,0.201974
728.6945,0.200270
730.5582,0.199530
732.4219,0.198493
734.2856,0.197409
736.1492,0.197071
738.0129,0.196668
739.8766,0.195325
741.7402,0.194546
743.6039,0.193444
745.4676,0.191876
747.3312,0.189662
749.1949,0.187713
751.0586,0.185675
752.9222,0.183597
754.7859,0.181507
756.6496,0.179773
758.5132,0.177779
760.3769,0.176139
762.2406,0.175232
764.1043,0.174613
765.9679,0.173311
767.8316,0.171708
769.6953,0.169904
771.5589,0.168210
773.4226,0.166470
775.2863,0.164924
777.1499,0.163745
779.0136,0.162783
780.8773,0.161172
782.7409,0.159592
784.6046,0.158042
786.4683,0.156410
788.3320,0.154557
790.1956,0.153184
792.0593,0.152135
793.9230,0.150906
795.7866,0.149655
797.6503,0.148485
799.5140,0.147503
801.3776,0.146768
803.2413,0.145825
805.1050,0.145158
806.9686,0.144479
808.8323,0.143829
810.6960,0.142997
812.5596,0.142469
814.4233,0.141834
816.2870,0.140852
818.1507,0.139525
820.0143,0.138115
821.8780,0.136345
823.7417,0.134624
825.6053,0.132530
827.4690,0.130689
829.3327,0.129239
831.1963,0.127715
833.0600,0.126437
834.9237,0.125388
836.7873,0.124061
838.6510,0.122588
840.5147,0.121261
842.3784,0.120210
844.2420,0.119011
846.1057,0.118157
847.9694,0.117586
849.8330,0.117079
851.6967,0.116638
853.5604,0.116119
855.4240,0.115770
857.2877,0.115498
859.1514,0.115233
861.0150,0.115474
862.8787,0.115842
864.7424,0.116451
866.6060,0.117555
868.4697,0.119719
870.3334,0.122071
872.1971,0.121788
874.0607,0.119428
875.9244,0.117453
877.7881,0.115708
879.6517,0.114229
881.5154,0.112836
883.3791,0.111323
885.2427,0.110028
887.1064,0.109195
888.9701,0.108503
890.8337,0.108176
892.6974,0.108191
894.5611,0.107894
896.4247,0.107323
898.2884,0.106815
900.1521,0.106200
902.0158,0.105463
903.8794,0.104927
905.7431,0.104946
907.6068,0.105027
909.4704,0.105005
911.3341,0.105260
913.1978,0.106085
915.0614,0.106931
916.9251,0.107712
918.7888,0.108371
920.6524,0.108890
922.5161,0.109543
924.3798,0.110175
926.2435,0.110370
928.1071,0.110463
929.9708,0.110673
931.8345,0.110821
933.6981,0.110894
935.5618,0.111241
937.4255,0.111902
939.2891,0.112813
941.1528,0.113981
943.0165,0.115307
944.8801,0.116404
946.7438,0.117408
948.6075,0.118198
950.4711,0.118565
952.3348,0.118944
954.1985,0.119931
956.0622,0.121499
957.9258,0.123691
959.7895,0.126297
961.6532,0.129448
963.5168,0.132966
965.3805,0.136224
967.2442,0.138615
969.1078,0.140268
970.9715,0.141287
972.8352,0.141979
974.6988,0.143148
976.5625,0.144966
978.4262,0.147224
980.2899,0.150021
982.1535,0.152890
984.0172,0.155468
985.8809,0.157700
987.7445,0.159671
989.6082,0.161636
991.4719,0.163912
993.3355,0.166495
995.1992,0.169266
997.0629,0.171989
998.9265,0.174615
1000.7902,0.177159
1002.6539,0.179687
1004.5175,0.182498
1006.3812,0.186069
1008.2449,0.190415
1010.1086,0.195224
1011.9722,0.200375
1013.8359,0.205722
1015.6996,0.210988
1017.5632,0.215862
1019.4269,0.219925
1021.2906,0.223099
1023.1542,0.225575
1025.0179,0.227709
1026.8816,0.230077
1028.7452,0.232575
1030.6089,0.234482
1032.4726,0.235850
1034.3362,0.236975
1036.1999,0.237590
1038.0636,0.237820
1039.9273,0.237999
1041.7909,0.237898
1043.6546,0.237647
1045.5183,0.237228
1047.3819,0.236608
1049.2456,0.235949
1051.1093,0.235647
1052.9729,0.235638
1054.8366,0.235752
1056.7003,0.235989
1058.5639,0.236259
1060.4276,0.236541
1062.2913,0.236704
1064.1550,0.236954
1066.0186,0.237314
1067.8823,0.237671
1069.7460,0.237653
1071.6096,0.237213
1073.4733,0.236157
1075.3370,0.234069
1077.2006,0.230892
1079.0643,0.226751
1080.9280,0.221516
1082.7916,0.215663
1084.6553,0.209630
1086.5190,0.203608
1088.3826,0.198257
1090.2463,0.193814
1092.1100,0.189875
1093.9737,0.186568
1095.8373,0.183774
1097.7010,0.181129
1099.5647,0.178863
1101.4283,0.176879
1103.2920,0.175125
1105.1557,0.173852
1107.0193,0.173148
1108.8830,0.172568
1110.7467,0.171977
1112.6103,0.171527
1114.4740,0.170853
1116.3377,0.169796
1118.2014,0.168403
1120.0650,0.166674
1121.9287,0.164790
1123.7924,0.162872
1125.6560,0.160918
1127.5197,0.158839
1129.3834,0.156541
1131.2470,0.154095
1133.1107,0.151410
1134.9744,0.148688
1136.8380,0.146119
1138.7017,0.143690
1140.5654,0.141620
1142.4290,0.140137
1144.2927,0.139225
1146.1564,0.138785
1148.0201,0.138786
1149.8837,0.138984
1151.7474,0.139225
1153.6111,0.139248
1155.4747,0.138830
1157.3384,0.138195
1159.2021,0.137432
1161.0657,0.136459
1162.9294,0.135262
1164.7931,0.133647
1166.6567,0.131682
1168.5204,0.129512
1170.3841,0.127100
1172.2477,0.124183
1174.1114,0.120997
1175.9751,0.117964
1177.8388,0.115527
1179.7024,0.113967
1181.5661,0.113267
1183.4298,0.113344
1185.2934,0.113946
1187.1571,0.115055
1189.0208,0.116322
1190.8844,0.117564
1192.7481,0.118945
1194.6118,0.120625
1196.4754,0.122494
1198.3391,0.124425
1200.2028,0.126598
1202.0665,0.128809
1203.9301,0.130896
1205.7938,0.132660
1207.6575,0.134109
1209.5211,0.135346
1211.3848,0.136581
1213.2485,0.137993
1215.1121,0.139632
1216.9758,0.141544
1218.8395,0.143751
1220.7031,0.146167
1222.5668,0.148600
1224.4305,0.151022
1226.2941,0.153314
1228.1578,0.155316
1230.0215,0.156941
1231.8852,0.158363
1233.7488,0.159492
1235.6125,0.160264
1237.4762,0.160582
1239.3398,0.160430
1241.2035,0.159914
1243.0672,0.158940
1244.9308,0.157559
1246.7945,0.155841
1248.6582,0.154039
1250.5218,0.152146
1252.3855,0.150245
1254.2492,0.148568
1256.1129,0.147007
1257.9765,0.145522
1259.8402,0.144304
1261.7039,0.143231
1263.5675,0.142243
1265.4312,0.141251
1267.2949,0.140339
1269.1585,0.139629
1271.0222,0.139023
1272.8859,0.138331
1274.7495,0.137692
1276.6132,0.137188
1278.4769,0.136882
1280.3405,0.136675
1282.2042,0.136511
1284.0679,0.136315
1285.9316,0.136009
1287.7952,0.136003
1289.6589,0.136133
1291.5226,0.136181
1293.3862,0.136455
1295.2499,0.137197
1297.1136,0.138242
1298.9772,0.139381
1300.8409,0.140516
1302.7046,0.141543
1304.5682,0.142539
1306.4319,0.143658
1308.2956,0.144742
1310.1592,0.145660
1312.0229,0.146664
1313.8866,0.147266
1315.7503,0.147014
1317.6139,0.146937
1319.4776,0.146788
1321.3413,0.145867
1323.2049,0.144866
1325.0686,0.144179
1326.9323,0.143600
1328.7959,0.143293
1330.6596,0.143192
1332.5233,0.143087
1334.3869,0.142798
1336.2506,0.143032
1338.1143,0.144678
1339.9780,0.146353
1341.8416,0.145723
1343.7053,0.144684
1345.5690,0.144259
1347.4326,0.143868
1349.2963,0.143671
1351.1600,0.143634
1353.0236,0.143820
1354.8873,0.144264
1356.7510,0.144334
1358.6146,0.144382
1360.4783,0.146194
1362.3420,0.150569
1364.2056,0.153318
1366.0693,0.154528
1367.9330,0.157386
1369.7967,0.159845
1371.6603,0.161874
1373.5240,0.166745
1375.3877,0.170916
1377.2513,0.172479
1379.1150,0.174731
1380.9787,0.176584
1382.8423,0.177739
1384.7060,0.179405
1386.5697,0.184152
1388.4333,0.187283
1390.2970,0.185967
1392.1607,0.186137
1394.0244,0.190304
1395.8880,0.193363
1397.7517,0.194033
1399.6154,0.195010
1401.4790,0.192567
1403.3427,0.191495
1405.2064,0.191785
1407.0700,0.189596
1408.9337,0.186945
1410.7974,0.185214
1412.6610,0.182515
1414.5247,0.178962
1416.3884,0.176942
1418.2520,0.180130
1420.1157,0.180717
1421.9794,0.176342
1423.8431,0.175562
1425.7067,0.174676
1427.5704,0.174330
1429.4341,0.177574
1431.2977,0.179495
1433.1614,0.179386
1435.0251,0.184039
1436.8887,0.194169
1438.7524,0.194656
1440.6161,0.192672
1442.4797,0.193080
1444.3434,0.193081
1446.2071,0.194211
1448.0707,0.196311
1449.9344,0.194261
1451.7981,0.190016
1453.6618,0.185558
1455.5254,0.186678
1457.3891,0.192240
1459.2528,0.184705
1461.1164,0.175021
1462.9801,0.171177
1464.8438,0.171561
1466.7074,0.167184
1468.5711,0.160476
1470.4348,0.157098
1472.2984,0.158758
1474.1621,0.156939
1476.0258,0.153085
1477.8895,0.149457
1479.7531,0.147697
1481.6168,0.148109
1483.4805,0.147710
1485.3441,0.148753
1487.2078,0.154464
1489.0715,0.164047
1490.9351,0.170591
1492.7988,0.170196
1494.6625,0.174666
1496.5261,0.187868
1498.3898,0.197951
1500.2535,0.200733
1502.1171,0.200393
1503.9808,0.203871
1505.8445,0.226703
1507.7082,0.253009
1509.5718,0.252365
1511.4355,0.253594
1513.2992,0.257830
1515.1628,0.262761
1517.0265,0.269023
1518.8902,0.270313
1520.7538,0.277617
1522.6175,0.284598
1524.4812,0.284286
1526.3448,0.287937
1528.2085,0.289369
1530.0722,0.287752
1531.9359,0.290000
1533.7995,0.295645
1535.6632,0.290307
1537.5269,0.285737
1539.3905,0.294543
1541.2542,0.302339
1543.1179,0.296475
1544.9815,0.289699
1546.8452,0.280650
1548.7089,0.273228
1550.5725,0.265773
1552.4362,0.256941
1554.2999,0.247951
1556.1635,0.240098
1558.0272,0.242864
1559.8909,0.243013
1561.7546,0.227697
1563.6182,0.217536
1565.4819,0.210708
1567.3456,0.205643
1569.2092,0.203736
1571.0729,0.198590
1572.9366,0.191606
1574.8002,0.191040
1576.6639,0.193687
1578.5276,0.189748
1580.3912,0.186190
1582.2549,0.185693
1584.1186,0.186297
1585.9822,0.187623
1587.8459,0.189752
1589.7096,0.192882
1591.5733,0.196619
1593.4369,0.201526
1595.3006,0.207217
1597.1643,0.212533
1599.0279,0.218117
1600.8916,0.225115
1602.7553,0.233170
1604.6189,0.241958
1606.4826,0.251429
1608.3463,0.262068
1610.2099,0.271692
1612.0736,0.278837
1613.9373,0.285405
1615.8010,0.299366
1617.6646,0.313898
1619.5283,0.316044
1621.3920,0.319537
1623.2556,0.330196
1625.1193,0.336167
1626.9830,0.338586
1628.8466,0.340104
1630.7103,0.337060
1632.5740,0.332796
1634.4376,0.334600
1636.3013,0.337328
1638.1650,0.328818
1640.0286,0.318396
1641.8923,0.309449
1643.7560,0.301347
1645.6197,0.296619
1647.4833,0.291043
1649.3470,0.279387
1651.2107,0.271282
1653.0743,0.271502
1654.9380,0.261544
1656.8017,0.247901
1658.6653,0.236335
1660.5290,0.227010
1662.3927,0.218361
1664.2563,0.208066
1666.1200,0.197826
1667.9837,0.189874
1669.8474,0.182451
1671.7110,0.173451
1673.5747,0.165092
1675.4384,0.157525
1677.3020,0.148731
1679.1657,0.140166
1681.0294,0.131569
1682.8930,0.125567
1684.7567,0.118512
1686.6204,0.109226
1688.4840,0.100978
1690.3477,0.092670
1692.2114,0.084644
1694.0750,0.077859
1695.9387,0.070643
1697.8024,0.063777
1699.6661,0.058994
1701.5297,0.053114
1703.3934,0.049096
1705.2571,0.046039
1707.1207,0.042780
1708.9844,0.040092
1710.8481,0.037820
1712.7117,0.036013
1714.5754,0.034730
1716.4391,0.033957
1718.3027,0.032959
1720.1664,0.030971
1722.0301,0.029328
1723.8937,0.028087
1725.7574,0.026857
1727.6211,0.025606
1729.4848,0.024552
1731.3484,0.023828
1733.2121,0.023919
1735.0758,0.023193
1736.9394,0.021834
1738.8031,0.021090
1740.6668,0.020590
1742.5304,0.020006
1744.3941,0.019149
1746.2578,0.018586
1748.1214,0.018204
1749.9851,0.017697
1751.8488,0.016750
1753.7125,0.015502
1755.5761,0.014871
1757.4398,0.014414
1759.3035,0.013973
1761.1671,0.013748
1763.0308,0.013232
1764.8945,0.012527
1766.7581,0.012199
1768.6218,0.012220
1770.4855,0.012416
1772.3491,0.012441
1774.2128,0.011868
1776.0765,0.011194
1777.9401,0.010915
1779.8038,0.011075
1781.6675,0.010962
1783.5312,0.010856
1785.3948,0.010739
1787.2585,0.010499
1789.1222,0.010312
1790.9858,0.010472
1792.8495,0.010434
1794.7132,0.009967
1796.5768,0.009648
1798.4405,0.009643
1800.3042,0.009651
1802.1678,0.009326
1804.0315,0.008985
1805.8952,0.008926
1807.7589,0.008868
1809.6225,0.008638
1811.4862,0.008410
1813.3499,0.008177
1815.2135,0.008033
1817.0772,0.007918
1818.9409,0.007770
1820.8045,0.007897
1822.6682,0.008263
1824.5319,0.008321
1826.3955,0.007671
1828.2592,0.007502
1830.1229,0.007858
1831.9865,0.007611
1833.8502,0.007346
1835.7139,0.007338
1837.5776,0.007262
1839.4412,0.007136
1841.3049,0.007351
1843.1686,0.007668
1845.0322,0.007434
1846.8959,0.007200
1848.7596,0.007336
1850.6232,0.007160
1852.4869,0.006869
1854.3506,0.006875
1856.2142,0.007005
1858.0779,0.006961
1859.9416,0.006958
1861.8052,0.006722
1863.6689,0.006673
1865.5326,0.006923
1867.3963,0.007213
1869.2599,0.007432
1871.1236,0.007378
1872.9873,0.006729
1874.8509,0.006237
1876.7146,0.006335
1878.5783,0.006693
1880.4419,0.006729
1882.3056,0.006706
1884.1693,0.006747
1886.0329,0.006846
1887.8966,0.007028
1889.7603,0.006842
1891.6240,0.006369
1893.4876,0.006530
1895.3513,0.006721
1897.2150,0.006855
1899.0786,0.006950
1900.9423,0.007174
1902.8060,0.007259
1904.6696,0.007265
1906.5333,0.007002
1908.3970,0.006705
1910.2606,0.006568
1912.1243,0.006750
1913.9880,0.006477
1915.8516,0.006253
1917.7153,0.006767
1919.5790,0.007436
1921.4427,0.007372
1923.3063,0.006971
1925.1700,0.006383
1927.0337,0.006389
1928.8973,0.006942
1930.7610,0.007050
1932.6247,0.006883
1934.4883,0.006644
1936.3520,0.006138
1938.2157,0.006418
1940.0793,0.007130
1941.9430,0.008192
1943.8067,0.008492
1945.6704,0.007608
1947.5340,0.006802
1949.3977,0.007112
1951.2614,0.007045
1953.1250,0.007459
1954.9887,0.007648
1956.8524,0.006759
1958.7160,0.006302
1960.5797,0.006923
1962.4434,0.007244
1964.3070,0.007310
1966.1707,0.007617
1968.0344,0.008584
1969.8980,0.008360
1971.7617,0.008345
1973.6254,0.009471
1975.4891,0.010322
1977.3527,0.009992
1979.2164,0.010328
1981.0801,0.010547
1982.9437,0.010107
1984.8074,0.008830
1986.6711,0.008430
1988.5347,0.008517
1990.3984,0.009462
1992.2621,0.010880
1994.1257,0.011031
1995.9894,0.009906
1997.8531,0.009937
1999.7167,0.010431
2001.5804,0.010049
2003.4441,0.009320
2005.3078,0.009964
2007.1714,0.010504
2009.0351,0.011137
2010.8988,0.010658
2012.7624,0.011493
2014.6261,0.012589
2016.4898,0.012211
2018.3534,0.012625
2020.2171,0.013332
2022.0808,0.013484
2023.9444,0.014385
2025.8081,0.014492
2027.6718,0.015366
2029.5355,0.017041
2031.3991,0.017360
2033.2628,0.017214
2035.1265,0.019171
2036.9901,0.021074
2038.8538,0.022904
2040.7175,0.024728
2042.5811,0.025565
2044.4448,0.026261
2046.3085,0.028513
2048.1721,0.030099
2050.0358,0.031320
2051.8995,0.031816
2053.7631,0.031857
2055.6268,0.032247
2057.4905,0.032726
2059.3542,0.032159
2061.2178,0.031778
2063.0815,0.031337
2064.9452,0.030708
2066.8088,0.029999
2068.6725,0.029835
2070.5362,0.029537
2072.3998,0.028064
2074.2635,0.026185
2076.1272,0.024781
2077.9908,0.023697
2079.8545,0.022508
2081.7182,0.020919
2083.5819,0.020386
2085.4455,0.019208
2087.3092,0.017838
2089.1729,0.017204
2091.0365,0.016540
2092.9002,0.015835
2094.7639,0.015369
2096.6275,0.014975
2098.4912,0.015196
2100.3549,0.015314
2102.2185,0.015206
2104.0822,0.014904
2105.9459,0.014729
2107.8095,0.014209
2109.6732,0.014254
2111.5369,0.014226
2113.4006,0.014526
2115.2642,0.014403
2117.1279,0.013883
2118.9916,0.014062
2120.8552,0.014286
2122.7189,0.013737
2124.5826,0.013483
2126.4462,0.013012
2128.3099,0.012555
2130.1736,0.012523
2132.0372,0.012480
2133.9009,0.012776
2135.7646,0.013585
2137.6282,0.013432
2139.4919,0.014126
2141.3556,0.013755
2143.2193,0.012236
2145.0829,0.012191
2146.9466,0.013580
2148.8103,0.012981
2150.6739,0.011826
2152.5376,0.012392
2154.4013,0.012203
2156.2649,0.011165
2158.1286,0.013244
2159.9923,0.016829
2161.8559,0.016745
2163.7196,0.014463
2165.5833,0.014748
2167.4470,0.015697
2169.3106,0.015688
2171.1743,0.014862
2173.0380,0.014352
2174.9016,0.013906
2176.7653,0.013958
2178.6290,0.013521
2180.4926,0.012709
2182.3563,0.013654
2184.2200,0.015939
2186.0836,0.014677
2187.9473,0.013649
2189.8110,0.014277
2191.6746,0.014780
2193.5383,0.015244
2195.4020,0.014810
2197.2657,0.014159
2199.1293,0.014376
2200.9930,0.014823
2202.8567,0.014943
2204.7203,0.014459
2206.5840,0.013950
2208.4477,0.013456
2210.3113,0.014324
2212.1750,0.015311
2214.0387,0.014892
2215.9023,0.014967
2217.7660,0.015991
2219.6297,0.015106
2221.4934,0.013688
2223.3570,0.013999
2225.2207,0.014243
2227.0844,0.013291
2228.9480,0.013814
2230.8117,0.015151
2232.6754,0.015245
2234.5390,0.014555
2236.4027,0.014102
2238.2664,0.014690
2240.1300,0.014958
2241.9937,0.014502
2243.8574,0.014266
2245.7210,0.013964
2247.5847,0.014283
2249.4484,0.014163
2251.3121,0.014113
2253.1757,0.014613
2255.0394,0.014469
2256.9031,0.013663
2258.7667,0.013683
2260.6304,0.014076
2262.4941,0.014271
2264.3577,0.014595
2266.2214,0.014977
2268.0851,0.014747
2269.9487,0.014546
2271.8124,0.014713
2273.6761,0.014594
2275.5397,0.014851
2277.4034,0.014912
2279.2671,0.014701
2281.1308,0.015009
2282.9944,0.014609
2284.8581,0.014906
2286.7218,0.015230
2288.5854,0.014647
2290.4491,0.014459
2292.3128,0.014448
2294.1764,0.014211
2296.0401,0.014558
2297.9038,0.014363
2299.7674,0.014158
2301.6311,0.013979
2303.4948,0.013786
2305.3585,0.013844
2307.2221,0.013894
2309.0858,0.013966
2310.9495,0.014459
2312.8131,0.014868
2314.6768,0.014961
2316.5405,0.014752
2318.4041,0.015082
2320.2678,0.015250
2322.1315,0.015346
2323.9951,0.015299
2325.8588,0.014619
2327.7225,0.014181
2329.5861,0.014363
2331.4498,0.014429
2333.3135,0.013991
2335.1772,0.013899
2337.0408,0.014644
2338.9045,0.015260
2340.7682,0.015631
2342.6318,0.015475
2344.4955,0.015149
2346.3592,0.014122
2348.2228,0.013262
2350.0865,0.012770
2351.9502,0.013053
2353.8138,0.013531
2355.6775,0.014396
2357.5412,0.014965
2359.4049,0.015213
2361.2685,0.015445
2363.1322,0.015541
2364.9959,0.015984
2366.8595,0.016610
2368.7232,0.016572
2370.5869,0.016814
2372.4505,0.016846
2374.3142,0.016517
2376.1779,0.015999
2378.0415,0.015477
2379.9052,0.015019
2381.7689,0.014958
2383.6325,0.014822
2385.4962,0.014454
2387.3599,0.014283
2389.2236,0.014473
2391.0872,0.014529
2392.9509,0.014513
2394.8146,0.014325
2396.6782,0.014317
2398.5419,0.014455
2400.4056,0.014704
2402.2692,0.014914
2404.1329,0.015167
2405.9966,0.015385
2407.8602,0.015383
2409.7239,0.015046
2411.5876,0.015244
2413.4512,0.015358
2415.3149,0.015517
2417.1786,0.015463
2419.0423,0.015534
2420.9059,0.015531
2422.7696,0.015725
2424.6333,0.016082
2426.4969,0.016126
2428.3606,0.016122
2430.2243,0.016292
2432.0879,0.016342
2433.9516,0.016346
2435.8153,0.016535
2437.6789,0.016904
2439.5426,0.017033
2441.4063,0.016913
2443.2700,0.016847
2445.1336,0.017090
2446.9973,0.017170
2448.8610,0.017336
2450.7246,0.017027
2452.5883,0.017097
2454.4520,0.017508
2456.3156,0.017948
2458.1793,0.017759
2460.0430,0.017578
2461.9066,0.017500
2463.7703,0.017630
2465.6340,0.017734
2467.4976,0.018022
2469.3613,0.018093
2471.2250,0.018169
2473.0887,0.018273
2474.9523,0.017972
2476.8160,0.017895
2478.6797,0.018370
2480.5433,0.018796
2482.4070,0.019026
2484.2707,0.018885
2486.1343,0.018905
2487.9980,0.019025
2489.8617,0.018981
2491.7253,0.018847
2493.5890,0.019190
2495.4527,0.019337
2497.3164,0.019529
2499.1800,0.019832
2501.0437,0.019794
2502.9074,0.019528
2504.7710,0.019805
2506.6347,0.019941
2508.4984,0.019793
2510.3620,0.019643
2512.2257,0.019819
2514.0894,0.020153
2515.9530,0.020363
2517.8167,0.020329
2519.6804,0.020402
2521.5440,0.020186
2523.4077,0.020364
2525.2714,0.020672
2527.1351,0.020812
2528.9987,0.020867
2530.8624,0.021192
2532.7261,0.021419
2534.5897,0.021450
2536.4534,0.021237
2538.3171,0.021090
2540.1807,0.021116
2542.0444,0.021520
2543.9081,0.021683
2545.7717,0.022013
2547.6354,0.022177
2549.4991,0.022096
2551.3627,0.021977
2553.2264,0.022117
2555.0901,0.022504
2556.9538,0.022819
2558.8174,0.022716
2560.6811,0.022635
2562.5448,0.022702
2564.4084,0.022835
2566.2721,0.023142
2568.1358,0.023631
2569.9994,0.023845
2571.8631,0.023924
2573.7268,0.023950
2575.5904,0.024177
2577.4541,0.024157
2579.3178,0.024137
2581.1815,0.024511
2583.0451,0.025061
2584.9088,0.025132
2586.7725,0.025289
2588.6361,0.025481
2590.4998,0.025564
2592.3635,0.025665
2594.2271,0.026166
2596.0908,0.026796
2597.9545,0.026659
2599.8181,0.026457
2601.6818,0.026962
2603.5455,0.027325
2605.4091,0.027477
2607.2728,0.027758
2609.1365,0.028272
2611.0002,0.028645
2612.8638,0.028855
2614.7275,0.029048
2616.5912,0.029093
2618.4548,0.029242
2620.3185,0.029516
2622.1822,0.029589
2624.0458,0.029823
2625.9095,0.029950
2627.7732,0.030090
2629.6368,0.030455
2631.5005,0.030897
2633.3642,0.031121
2635.2279,0.031433
2637.0915,0.031644
2638.9552,0.031515
2640.8189,0.031529
2642.6825,0.031967
2644.5462,0.032225
2646.4099,0.032263
2648.2735,0.032496
2650.1372,0.032860
2652.0009,0.033100
2653.8645,0.033242
2655.7282,0.033199
2657.5919,0.033420
2659.4555,0.033537
2661.3192,0.033643
2663.1829,0.033687
2665.0466,0.033653
2666.9102,0.033531
2668.7739,0.033767
2670.6376,0.034204
2672.5012,0.034487
2674.3649,0.034648
2676.2286,0.034881
2678.0922,0.035124
2679.9559,0.035304
2681.8196,0.035365
2683.6832,0.035576
2685.5469,0.035810
2687.4106,0.036114
2689.2742,0.036326
2691.1379,0.036513
2693.0016,0.036798
2694.8653,0.037161
2696.7289,0.037313
2698.5926,0.037340
2700.4563,0.037546
2702.3199,0.037878
2704.1836,0.038071
2706.0473,0.038377
2707.9109,0.038677
2709.7746,0.039114
2711.6383,0.039571
2713.5019,0.039819
2715.3656,0.039926
2717.2293,0.040223
2719.0930,0.040744
2720.9566,0.041185
2722.8203,0.041458
2724.6840,0.041986
2726.5476,0.042318
2728.4113,0.042455
2730.2750,0.042766
2732.1386,0.043015
2734.0023,0.043160
2735.8660,0.043691
2737.7296,0.044156
2739.5933,0.044507
2741.4570,0.044989
2743.3206,0.045478
2745.1843,0.045788
2747.0480,0.046117
2748.9117,0.046321
2750.7753,0.046623
2752.6390,0.047020
2754.5027,0.047399
2756.3663,0.047726
2758.2300,0.048298
2760.0937,0.048783
2761.9573,0.049152
2763.8210,0.049449
2765.6847,0.049828
2767.5483,0.050224
2769.4120,0.050736
2771.2757,0.051077
2773.1394,0.051316
2775.0030,0.051787
2776.8667,0.052251
2778.7304,0.052712
2780.5940,0.053357
2782.4577,0.053919
2784.3214,0.054429
2786.1850,0.054827
2788.0487,0.055031
2789.9124,0.055338
2791.7760,0.055758
2793.6397,0.056174
2795.5034,0.056581
2797.3670,0.056927
2799.2307,0.057359
2801.0944,0.058014
2802.9581,0.058851
2804.8217,0.059393
2806.6854,0.059794
2808.5491,0.060213
2810.4127,0.060568
2812.2764,0.060969
2814.1401,0.061509
2816.0037,0.062031
2817.8674,0.062513
2819.7311,0.062735
2821.5947,0.063217
2823.4584,0.063883
2825.3221,0.064459
2827.1857,0.064972
2829.0494,0.065477
2830.9131,0.066033
2832.7768,0.066518
2834.6404,0.067094
2836.5041,0.067906
2838.3678,0.068591
2840.2314,0.069330
2842.0951,0.070520
2843.9588,0.071977
2845.8224,0.073352
2847.6861,0.074853
2849.5498,0.076158
2851.4134,0.077162
2853.2771,0.077765
2855.1408,0.078164
2857.0045,0.078631
2858.8681,0.079185
2860.7318,0.079722
2862.5955,0.080401
2864.4591,0.081334
2866.3228,0.082538
2868.1865,0.083742
2870.0501,0.084884
2871.9138,0.085582
2873.7775,0.085800
2875.6411,0.085906
2877.5048,0.085981
2879.3685,0.085748
2881.2321,0.085656
2883.0958,0.085506
2884.9595,0.085305
2886.8232,0.085307
2888.6868,0.085523
2890.5505,0.086068
2892.4142,0.086808
2894.2778,0.087501
2896.1415,0.088130
2898.0052,0.088589
2899.8688,0.089070
2901.7325,0.089794
2903.5962,0.090980
2905.4598,0.092192
2907.3235,0.093419
2909.1872,0.094408
2911.0509,0.095330
2912.9145,0.096622
2914.7782,0.098134
2916.6419,0.099622
2918.5055,0.101040
2920.3692,0.102263
2922.2329,0.102926
2924.0965,0.103011
2925.9602,0.103343
2927.8239,0.103702
2929.6875,0.103830
2931.5512,0.103591
2933.4149,0.103138
2935.2785,0.102895
2937.1422,0.102747
2939.0059,0.102195
2940.8696,0.101532
2942.7332,0.101051
2944.5969,0.100855
2946.4606,0.100753
2948.3242,0.100818
2950.1879,0.101383
2952.0516,0.102383
2953.9152,0.103230
2955.7789,0.103665
2957.6426,0.103821
2959.5062,0.103834
2961.3699,0.103514
2963.2336,0.102974
2965.0972,0.102404
2966.9609,0.101667
2968.8246,0.100520
2970.6883,0.099490
2972.5519,0.098627
2974.4156,0.097679
2976.2793,0.096721
2978.1429,0.095943
2980.0066,0.095051
2981.8703,0.094024
2983.7339,0.093217
2985.5976,0.092710
2987.4613,0.092501
2989.3249,0.091998
2991.1886,0.091219
2993.0523,0.091010
2994.9160,0.091179
2996.7796,0.091181
2998.6433,0.090965
3000.5070,0.091207
3002.3706,0.091798
3004.2343,0.092228
3006.0980,0.092678
3007.9616,0.093474
3009.8253,0.094461
3011.6890,0.095092
3013.5526,0.095717
3015.4163,0.096543
3017.2800,0.096975
3019.1436,0.097538
3021.0073,0.098317
3022.8710,0.098905
3024.7347,0.099787
3026.5983,0.100982
3028.4620,0.102275
3030.3257,0.103530
3032.1893,0.104466
3034.0530,0.105137
3035.9167,0.105874
3037.7803,0.106958
3039.6440,0.107967
3041.5077,0.108429
3043.3713,0.108770
3045.2350,0.109360
3047.0987,0.110150
3048.9624,0.111288
3050.8260,0.112404
3052.6897,0.113056
3054.5534,0.113544
3056.4170,0.113997
3058.2807,0.114647
3060.1444,0.115174
3062.0080,0.115658
3063.8717,0.116214
3065.7354,0.116653
3067.5990,0.116909
3069.4627,0.117064
3071.3264,0.117281
3073.1900,0.117568
3075.0537,0.117844
3076.9174,0.118196
3078.7811,0.118245
3080.6447,0.118030
3082.5084,0.117812
3084.3721,0.117546
3086.2357,0.117295
3088.0994,0.117491
3089.9631,0.117681
3091.8267,0.117763
3093.6904,0.117900
3095.5541,0.118036
3097.4177,0.118372
3099.2814,0.118614
3101.1451,0.118304
3103.0087,0.118208
3104.8724,0.118580
3106.7361,0.118937
3108.5998,0.119271
3110.4634,0.119873
3112.3271,0.120419
3114.1908,0.120922
3116.0544,0.121219
3117.9181,0.121452
3119.7818,0.121722
3121.6454,0.122516
3123.5091,0.123453
3125.3728,0.124317
3127.2364,0.125279
3129.1001,0.126062
3130.9638,0.126564
3132.8275,0.127547
3134.6911,0.128976
3136.5548,0.130089
3138.4185,0.130742
3140.2821,0.131593
3142.1458,0.132610
3144.0095,0.133612
3145.8731,0.134583
3147.7368,0.135818
3149.6005,0.136965
3151.4641,0.138163
3153.3278,0.139197
3155.1915,0.139830
3157.0551,0.140635
3158.9188,0.142260
3160.7825,0.143095
3162.6462,0.143677
3164.5098,0.144790
3166.3735,0.146465
3168.2372,0.147864
3170.1008,0.148794
3171.9645,0.149614
3173.8282,0.150974
3175.6918,0.152053
3177.5555,0.152986
3179.4192,0.153729
3181.2828,0.154685
3183.1465,0.155218
3185.0102,0.156117
3186.8739,0.157446
3188.7375,0.158219
3190.6012,0.158991
3192.4649,0.160438
3194.3285,0.161128
3196.1922,0.161652
3198.0559,0.162128
3199.9195,0.162864
3201.7832,0.163685
3203.6469,0.164367
3205.5105,0.164509
3207.3742,0.165083
3209.2379,0.165623
3211.1015,0.166170
3212.9652,0.166671
3214.8289,0.167299
3216.6926,0.167715
3218.5562,0.168402
3220.4199,0.168584
3222.2836,0.168639
3224.1472,0.168977
3226.0109,0.170212
3227.8746,0.170676
3229.7382,0.171180
3231.6019,0.171624
3233.4656,0.172313
3235.3292,0.172779
3237.1929,0.173152
3239.0566,0.173307
3240.9202,0.173765
3242.7839,0.174450
3244.6476,0.175693
3246.5113,0.176434
3248.3749,0.177173
3250.2386,0.177449
3252.1023,0.177494
3253.9659,0.178114
3255.8296,0.179540
3257.6933,0.179842
3259.5569,0.180222
3261.4206,0.181019
3263.2843,0.181959
3265.1479,0.181449
3267.0116,0.181333
3268.8753,0.182318
3270.7390,0.182921
3272.6026,0.182366
3274.4663,0.182071
3276.3300,0.181585
3278.1936,0.181582
3280.0573,0.181050
3281.9210,0.180716
3283.7846,0.179903
3285.6483,0.179322
3287.5120,0.178438
3289.3756,0.177796
3291.2393,0.176765
3293.1030,0.176059
3294.9666,0.174819
3296.8303,0.173447
3298.6940,0.172191
3300.5577,0.171650
3302.4213,0.170706
3304.2850,0.170037
3306.1487,0.168191
3308.0123,0.166635
3309.8760,0.165641
3311.7397,0.164977
3313.6033,0.163887
3315.4670,0.162786
3317.3307,0.161481
3319.1943,0.160760
3321.0580,0.159976
3322.9217,0.159336
3324.7854,0.158545
3326.6490,0.158189
3328.5127,0.157654
3330.3764,0.156879
3332.2400,0.155541
3334.1037,0.154891
3335.9674,0.153969
3337.8310,0.152983
3339.6947,0.152080
3341.5584,0.152038
3343.4220,0.151256
3345.2857,0.151018
3347.1494,0.150041
3349.0130,0.149634
3350.8767,0.149159
3352.7404,0.148621
3354.6041,0.148102
3356.4677,0.147670
3358.3314,0.147137
3360.1951,0.146842
3362.0587,0.145751
3363.9224,0.144533
3365.7861,0.143183
3367.6497,0.142702
3369.5134,0.142464
3371.3771,0.142749
3373.2407,0.142131
3375.1044,0.141715
3376.9681,0.141153
3378.8317,0.140474
3380.6954,0.139321
3382.5591,0.138693
3384.4228,0.138356
3386.2864,0.138134
3388.1501,0.137609
3390.0138,0.136770
3391.8774,0.135066
3393.7411,0.135162
3395.6048,0.135318
3397.4684,0.134388
3399.3321,0.132976
3401.1958,0.132447
3403.0594,0.131719
3404.9231,0.131353
3406.7868,0.130729
3408.6505,0.130161
3410.5141,0.129050
3412.3778,0.128621
3414.2415,0.127740
3416.1051,0.127315
3417.9688,0.126478
3419.8325,0.125897
3421.6961,0.124580
3423.5598,0.123173
3425.4235,0.122333
3427.2871,0.122883
3429.1508,0.122329
3431.0145,0.121223
3432.8781,0.119330
3434.7418,0.117933
3436.6055,0.117726
3438.4692,0.117380
3440.3328,0.116123
3442.1965,0.115940
3444.0602,0.115646
3445.9238,0.114910
3447.7875,0.113638
3449.6512,0.112988
3451.5148,0.111555
3453.3785,0.109851
3455.2422,0.109355
3457.1058,0.108726
3458.9695,0.106490
3460.8332,0.106307
3462.6969,0.106457
3464.5605,0.105269
3466.4242,0.103670
3468.2879,0.103153
3470.1515,0.101398
3472.0152,0.100482
3473.8789,0.099585
3475.7425,0.098586
3477.6062,0.097294
3479.4699,0.096604
3481.3335,0.095912
3483.1972,0.095481
3485.0609,0.093933
3486.9245,0.091802
3488.7882,0.090718
3490.6519,0.090778
3492.5156,0.090066
3494.3792,0.088963
3496.2429,0.087120
3498.1066,0.085725
3499.9702,0.085227
3501.8339,0.084809
3503.6976,0.083758
3505.5612,0.082200
3507.4249,0.080726
3509.2886,0.080685
3511.1522,0.080335
3513.0159,0.078800
3514.8796,0.076737
3516.7432,0.075822
3518.6069,0.075097
3520.4706,0.074087
3522.3343,0.072718
3524.1979,0.071967
3526.0616,0.071182
3527.9253,0.069733
3529.7889,0.068892
3531.6526,0.068585
3533.5163,0.067078
3535.3799,0.065363
3537.2436,0.063566
3539.1073,0.062424
3540.9709,0.061318
3542.8346,0.060493
3544.6983,0.059899
3546.5620,0.058860
3548.4256,0.057157
3550.2893,0.056704
3552.1530,0.055575
3554.0166,0.054589
3555.8803,0.053110
3557.7440,0.051621
3559.6076,0.050656
3561.4713,0.050053
3563.3350,0.049355
3565.1986,0.048718
3567.0623,0.047730
3568.9260,0.046499
3570.7896,0.045033
3572.6533,0.043968
3574.5170,0.042875
3576.3807,0.042287
3578.2443,0.041254
3580.1080,0.040232
3581.9717,0.039018
3583.8353,0.037894
3585.6990,0.036731
3587.5627,0.036392
3589.4263,0.036753
3591.2900,0.035881
3593.1537,0.034108
3595.0173,0.032995
3596.8810,0.032239
3598.7447,0.031459
3600.6084,0.030229
3602.4720,0.029325
3604.3357,0.028217
3606.1994,0.027653
3608.0630,0.027243
3609.9267,0.026067
3611.7904,0.024401
3613.6540,0.023496
3615.5177,0.022657
3617.3814,0.021555
3619.2450,0.020908
3621.1087,0.020839
3622.9724,0.020207
3624.8360,0.019186
3626.6997,0.018291
3628.5634,0.017467
3630.4271,0.016789
3632.2907,0.015855
3634.1544,0.014869
3636.0181,0.014125
3637.8817,0.013511
3639.7454,0.012984
3641.6091,0.011993
3643.4727,0.011174
3645.3364,0.010154
3647.2001,0.009250
3649.0637,0.008533
3650.9274,0.007622
3652.7911,0.007154
3654.6547,0.006183
3656.5184,0.005398
3658.3821,0.004979
3660.2458,0.003928
3662.1094,0.003716
3663.9731,0.003733
3665.8368,0.002986
3667.7004,0.001959
3669.5641,0.001394
3671.4278,0.000920
3673.2914,-0.000173
3675.1551,-0.001093
3677.0188,-0.001082
3678.8824,-0.001522
3680.7461,-0.001952
3682.6098,-0.001996
3684.4735,-0.002384
3686.3371,-0.002650
3688.2008,-0.003176
3690.0645,-0.004022
3691.9281,-0.004580
3693.7918,-0.004861
3695.6555,-0.005473
3697.5191,-0.005544
3699.3828,-0.005111
3701.2465,-0.005064
3703.1101,-0.004769
3704.9738,-0.005121
3706.8375,-0.005853
3708.7011,-0.005701
3710.5648,-0.005402
3712.4285,-0.006284
3714.2922,-0.006995
3716.1558,-0.006474
3718.0195,-0.006064
3719.8832,-0.006377
3721.7468,-0.006479
3723.6105,-0.006152
3725.4742,-0.006450
3727.3378,-0.006703
3729.2015,-0.006715
3731.0652,-0.006906
3732.9288,-0.007134
3734.7925,-0.007302
3736.6562,-0.007637
3738.5199,-0.007331
3740.3835,-0.007149
3742.2472,-0.006956
3744.1109,-0.007585
3745.9745,-0.008218
3747.8382,-0.007928
3749.7019,-0.007600
3751.5655,-0.007544
3753.4292,-0.007931
3755.2929,-0.007841
3757.1565,-0.007783
3759.0202,-0.007698
3760.8839,-0.007487
3762.7475,-0.007553
3764.6112,-0.007749
3766.4749,-0.007382
3768.3386,-0.007256
3770.2022,-0.007342
3772.0659,-0.007465
3773.9296,-0.007779
3775.7932,-0.008043
3777.6569,-0.007845
3779.5206,-0.007660
3781.3842,-0.007350
3783.2479,-0.007393
3785.1116,-0.007823
3786.9752,-0.008157
3788.8389,-0.007933
3790.7026,-0.007482
3792.5662,-0.007624
3794.4299,-0.007788
3796.2936,-0.007451
3798.1573,-0.007139
3800.0209,-0.007272
3801.8846,-0.007679
3803.7483,-0.008234
3805.6119,-0.008717
3807.4756,-0.008721
3809.3393,-0.008367
3811.2029,-0.008077
3813.0666,-0.007803
3814.9303,-0.007853
3816.7939,-0.007889
3818.6576,-0.007655
3820.5213,-0.008055
3822.3850,-0.008508
3824.2486,-0.008096
3826.1123,-0.007787
3827.9760,-0.007974
3829.8396,-0.007960
3831.7033,-0.007881
3833.5670,-0.007712
3835.4306,-0.007673
3837.2943,-0.008197
3839.1580,-0.008549
3841.0216,-0.008080
3842.8853,-0.007999
3844.7490,-0.008222
3846.6126,-0.008212
3848.4763,-0.007832
3850.3400,-0.007680
3852.2037,-0.008281
3854.0673,-0.008891
3855.9310,-0.008308
3857.7947,-0.008077
3859.6583,-0.008164
3861.5220,-0.008009
3863.3857,-0.007732
3865.2493,-0.007857
3867.1130,-0.007667
3868.9767,-0.008069
3870.8403,-0.008023
3872.7040,-0.007759
3874.5677,-0.007659
3876.4314,-0.007513
3878.2950,-0.007308
3880.1587,-0.007543
3882.0224,-0.007601
3883.8860,-0.007538
3885.7497,-0.007694
3887.6134,-0.007474
3889.4770,-0.007455
3891.3407,-0.007911
3893.2044,-0.008103
3895.0680,-0.007530
3896.9317,-0.007249
3898.7954,-0.007313
3900.6590,-0.007114
3902.5227,-0.007377
3904.3864,-0.007618
3906.2501,-0.007828
3908.1137,-0.007917
3909.9774,-0.007456
3911.8411,-0.007062
3913.7047,-0.007233
3915.5684,-0.007171
3917.4321,-0.007415
3919.2957,-0.007763
3921.1594,-0.007524
3923.0231,-0.007061
3924.8867,-0.006698
3926.7504,-0.006771
3928.6141,-0.007270
3930.4777,-0.007096
3932.3414,-0.007312
3934.2051,-0.007613
3936.0688,-0.007547
3937.9324,-0.007287
3939.7961,-0.007013
3941.6598,-0.006916
3943.5234,-0.007034
3945.3871,-0.007290
3947.2508,-0.007170
3949.1144,-0.006610
3950.9781,-0.006556
3952.8418,-0.007022
3954.7054,-0.007366
3956.5691,-0.006971
3958.4328,-0.006846
3960.2965,-0.007099
3962.1601,-0.006951
3964.0238,-0.006839
3965.8875,-0.007114
3967.7511,-0.007166
3969.6148,-0.006821
3971.4785,-0.006735
3973.3421,-0.006856
3975.2058,-0.006883
3977.0695,-0.007226
3978.9331,-0.007330
3980.7968,-0.007207
3982.6605,-0.007060
3984.5241,-0.007035
3986.3878,-0.006753
3988.2515,-0.006690
3990.1152,-0.006845
3991.9788,-0.006973
3993.8425,-0.007152
3995.7062,-0.006949
3997.5698,-0.006717
3999.4335,-0.007045
