Wavenumber,Intensity
650.4205,0.201221
652.2841,0.203200
654.1478,0.200655
656.0115,0.195723
657.8751,0.191110
659.7388,0.190254
661.6025,0.193829
663.4661,0.194399
665.3298,0.190097
667.1935,0.188185
669.0571,0.193225
670.9208,0.190165
672.7845,0.185993
674.6481,0.185160
676.5118,0.185738
678.3755,0.183458
680.2392,0.181464
682.1028,0.179329
683.9665,0.177413
685.8302,0.177349
687.6938,0.176839
689.5575,0.175066
691.4212,0.174386
693.2848,0.174354
695.1485,0.174267
697.0122,0.174942
698.8758,0.173706
700.7395,0.170146
702.6032,0.167989
704.4669,0.166303
706.3305,0.163971
708.1942,0.161702
710.0579,0.159287
711.9215,0.157175
713.7852,0.156146
715.6489,0.154618
717.5125,0.152035
719.3762,0.150168
721.2399,0.149075
723.1035,0.147376
724.9672,0.145982
726.8309,0.144856
728.6945,0.143759
730.5582,0.142799
732.4219,0.141526
734.2856,0.140380
736.1492,0.139711
738.0129,0.139634
739.8766,0.139612
741.7402,0.139166
743.6039,0.138573
745.4676,0.137664
747.3312,0.136031
749.1949,0.134290
751.0586,0.132741
752.9222,0.131104
754.7859,0.129800
756.6496,0.128992
758.5132,0.127952
760.3769,0.126851
762.2406,0.126041
764.1043,0.125307
765.9679,0.124444
767.8316,0.123804
769.6953,0.123138
771.5589,0.122193
773.4226,0.121520
775.2863,0.120855
777.1499,0.119716
779.0136,0.118667
780.8773,0.117854
782.7409,0.116832
784.6046,0.115631
786.4683,0.114344
788.3320,0.112940
790.1956,0.111903
792.0593,0.111007
793.9230,0.110084
795.7866,0.109312
797.6503,0.108639
799.5140,0.108134
801.3776,0.107911
803.2413,0.107557
805.1050,0.107238
806.9686,0.107014
808.8323,0.106550
810.6960,0.105686
812.5596,0.104712
814.4233,0.104130
816.2870,0.103543
818.1507,0.102410
820.0143,0.101319
821.8780,0.100345
823.7417,0.099489
825.6053,0.098872
827.4690,0.098302
829.3327,0.097449
831.1963,0.096868
833.0600,0.096397
834.9237,0.095240
836.7873,0.094051
838.6510,0.093155
840.5147,0.092307
842.3784,0.091462
844.2420,0.090567
846.1057,0.089847
847.9694,0.089329
849.8330,0.088860
851.6967,0.088447
853.5604,0.088280
855.4240,0.088121
857.2877,0.087837
859.1514,0.087568
861.0150,0.087575
862.8787,0.087706
864.7424,0.087859
866.6060,0.087979
868.4697,0.088322
870.3334,0.088909
872.1971,0.089267
874.0607,0.089253
875.9244,0.089223
877.7881,0.089154
879.6517,0.088892
881.5154,0.088310
883.3791,0.087598
885.2427,0.087075
887.1064,0.086794
888.9701,0.086516
890.8337,0.086493
892.6974,0.086684
894.5611,0.086682
896.4247,0.086394
898.2884,0.085887
900.1521,0.085423
902.0158,0.085032
903.8794,0.084565
905.7431,0.084351
907.6068,0.084434
909.4704,0.084649
911.3341,0.085154
913.1978,0.085838
915.0614,0.086508
916.9251,0.087286
918.7888,0.088134
920.6524,0.088943
922.5161,0.089549
924.3798,0.089837
926.2435,0.089961
928.1071,0.090066
929.9708,0.090192
931.8345,0.090386
933.6981,0.090563
935.5618,0.090907
937.4255,0.091454
939.2891,0.092030
941.1528,0.092789
943.0165,0.093770
944.8801,0.094585
946.7438,0.095219
948.6075,0.095719
950.4711,0.096080
952.3348,0.096368
954.1985,0.096903
956.0622,0.097958
957.9258,0.099605
959.7895,0.101603
961.6532,0.103759
963.5168,0.105921
965.3805,0.107793
967.2442,0.109081
969.1078,0.109789
970.9715,0.110100
972.8352,0.110285
974.6988,0.110635
976.5625,0.111385
978.4262,0.112491
980.2899,0.113819
982.1535,0.115245
984.0172,0.116792
985.8809,0.118483
987.7445,0.120191
989.6082,0.121906
991.4719,0.123847
993.3355,0.125753
995.1992,0.127494
997.0629,0.129317
998.9265,0.131276
1000.7902,0.133287
1002.6539,0.135456
1004.5175,0.137733
1006.3812,0.140413
1008.2449,0.143566
1010.1086,0.146889
1011.9722,0.150130
1013.8359,0.153460
1015.6996,0.156809
1017.5632,0.159886
1019.4269,0.162283
1021.2906,0.164140
1023.1542,0.165621
1025.0179,0.166875
1026.8816,0.168153
1028.7452,0.169399
1030.6089,0.170437
1032.4726,0.171201
1034.3362,0.171616
1036.1999,0.171715
1038.0636,0.171570
1039.9273,0.171244
1041.7909,0.170900
1043.6546,0.170634
1045.5183,0.170376
1047.3819,0.170063
1049.2456,0.169896
1051.1093,0.169960
1052.9729,0.170013
1054.8366,0.169970
1056.7003,0.169790
1058.5639,0.169634
1060.4276,0.169620
1062.2913,0.169541
1064.1550,0.169489
1066.0186,0.169712
1067.8823,0.169841
1069.7460,0.169691
1071.6096,0.169178
1073.4733,0.168122
1075.3370,0.166464
1077.2006,0.164194
1079.0643,0.161308
1080.9280,0.157681
1082.7916,0.153666
1084.6553,0.149698
1086.5190,0.145907
1088.3826,0.142449
1090.2463,0.139443
1092.1100,0.136939
1093.9737,0.134913
1095.8373,0.133161
1097.7010,0.131498
1099.5647,0.130272
1101.4283,0.129417
1103.2920,0.128585
1105.1557,0.127922
1107.0193,0.127479
1108.8830,0.126948
1110.7467,0.126444
1112.6103,0.125976
1114.4740,0.125372
1116.3377,0.124610
1118.2014,0.123671
1120.0650,0.122573
1121.9287,0.121537
1123.7924,0.120567
1125.6560,0.119458
1127.5197,0.118151
1129.3834,0.116682
1131.2470,0.114984
1133.1107,0.113303
1134.9744,0.111854
1136.8380,0.110553
1138.7017,0.109513
1140.5654,0.108905
1142.4290,0.108619
1144.2927,0.108627
1146.1564,0.108977
1148.0201,0.109593
1149.8837,0.110319
1151.7474,0.110948
1153.6111,0.111283
1155.4747,0.111364
1157.3384,0.111263
1159.2021,0.110991
1161.0657,0.110566
1162.9294,0.109912
1164.7931,0.108945
1166.6567,0.107822
1168.5204,0.106528
1170.3841,0.104858
1172.2477,0.102918
1174.1114,0.100768
1175.9751,0.098574
1177.8388,0.096806
1179.7024,0.095658
1181.5661,0.095142
1183.4298,0.095304
1185.2934,0.096001
1187.1571,0.096931
1189.0208,0.097969
1190.8844,0.099203
1192.7481,0.100596
1194.6118,0.102174
1196.4754,0.103900
1198.3391,0.105836
1200.2028,0.107877
1202.0665,0.109800
1203.9301,0.111517
1205.7938,0.113122
1207.6575,0.114520
1209.5211,0.115635
1211.3848,0.116779
1213.2485,0.118144
1215.1121,0.119553
1216.9758,0.121069
1218.8395,0.122669
1220.7031,0.124387
1222.5668,0.126061
1224.4305,0.127604
1226.2941,0.129045
1228.1578,0.130291
1230.0215,0.131341
1231.8852,0.132166
1233.7488,0.132733
1235.6125,0.133018
1237.4762,0.133009
1239.3398,0.132665
1241.2035,0.132045
1243.0672,0.131187
1244.9308,0.130061
1246.7945,0.128857
1248.6582,0.127633
1250.5218,0.126376
1252.3855,0.125193
1254.2492,0.124031
1256.1129,0.122809
1257.9765,0.121740
1259.8402,0.121022
1261.7039,0.120358
1263.5675,0.119613
1265.4312,0.118852
1267.2949,0.118280
1269.1585,0.117990
1271.0222,0.117786
1272.8859,0.117489
1274.7495,0.117040
1276.6132,0.116760
1278.4769,0.116662
1280.3405,0.116585
1282.2042,0.116393
1284.0679,0.116293
1285.9316,0.116397
1287.7952,0.116610
1289.6589,0.116737
1291.5226,0.116793
1293.3862,0.116935
1295.2499,0.117378
1297.1136,0.117951
1298.9772,0.118527
1300.8409,0.119094
1302.7046,0.119545
1304.5682,0.119923
1306.4319,0.120266
1308.2956,0.120612
1310.1592,0.120819
1312.0229,0.121218
1313.8866,0.121251
1315.7503,0.120694
1317.6139,0.120296
1319.4776,0.119858
1321.3413,0.119014
1323.2049,0.118171
1325.0686,0.117583
1326.9323,0.117172
1328.7959,0.116851
1330.6596,0.116597
1332.5233,0.116360
1334.3869,0.116064
1336.2506,0.116299
1338.1143,0.117609
1339.9780,0.118991
1341.8416,0.118478
1343.7053,0.117659
1345.5690,0.117518
1347.4326,0.117514
1349.2963,0.117672
1351.1600,0.117839
1353.0236,0.118354
1354.8873,0.119153
1356.7510,0.119473
1358.6146,0.119761
1360.4783,0.121826
1362.3420,0.125982
1364.2056,0.128297
1366.0693,0.129200
1367.9330,0.131540
1369.7967,0.133167
1371.6603,0.134377
1373.5240,0.137831
1375.3877,0.140601
1377.2513,0.141401
1379.1150,0.142954
1380.9787,0.144036
1382.8423,0.144410
1384.7060,0.145184
1386.5697,0.148293
1388.4333,0.149786
1390.2970,0.147904
1392.1607,0.147524
1394.0244,0.150045
1395.8880,0.151405
1397.7517,0.151229
1399.6154,0.151379
1401.4790,0.148826
1403.3427,0.147637
1405.2064,0.147538
1407.0700,0.145499
1408.9337,0.143260
1410.7974,0.141895
1412.6610,0.140019
1414.5247,0.137577
1416.3884,0.136559
1418.2520,0.139449
1420.1157,0.139694
1421.9794,0.136309
1423.8431,0.136171
1425.7067,0.135565
1427.5704,0.135324
1429.4341,0.137712
1431.2977,0.138533
1433.1614,0.137961
1435.0251,0.141702
1436.8887,0.148917
1438.7524,0.147944
1440.6161,0.146199
1442.4797,0.146329
1444.3434,0.146069
1446.2071,0.146837
1448.0707,0.148124
1449.9344,0.146362
1451.7981,0.143098
1453.6618,0.140253
1455.5254,0.142423
1457.3891,0.147602
1459.2528,0.141025
1461.1164,0.134234
1462.9801,0.132514
1464.8438,0.133832
1466.7074,0.130680
1468.5711,0.125866
1470.4348,0.124175
1472.2984,0.126622
1474.1621,0.125729
1476.0258,0.123443
1477.8895,0.121370
1479.7531,0.120876
1481.6168,0.122326
1483.4805,0.122543
1485.3441,0.124048
1487.2078,0.129619
1489.0715,0.138736
1490.9351,0.144613
1492.7988,0.144034
1494.6625,0.147843
1496.5261,0.158517
1498.3898,0.165523
1500.2535,0.166946
1502.1171,0.165849
1503.9808,0.168441
1505.8445,0.185213
1507.7082,0.202188
1509.5718,0.199169
1511.4355,0.199641
1513.2992,0.202003
1515.1628,0.205275
1517.0265,0.208247
1518.8902,0.208242
1520.7538,0.213490
1522.6175,0.216710
1524.4812,0.215743
1526.3448,0.218459
1528.2085,0.218320
1530.0722,0.216988
1531.9359,0.219115
1533.7995,0.221697
1535.6632,0.216120
1537.5269,0.215138
1539.3905,0.221509
1541.2542,0.221894
1543.1179,0.216267
1544.9815,0.211332
1546.8452,0.204463
1548.7089,0.199504
1550.5725,0.193299
1552.4362,0.186295
1554.2999,0.179729
1556.1635,0.174048
1558.0272,0.177106
1559.8909,0.173606
1561.7546,0.161406
1563.6182,0.155715
1565.4819,0.151475
1567.3456,0.148081
1569.2092,0.147085
1571.0729,0.142588
1572.9366,0.137920
1574.8002,0.138185
1576.6639,0.139385
1578.5276,0.135523
1580.3912,0.133026
1582.2549,0.132566
1584.1186,0.132539
1585.9822,0.132582
1587.8459,0.133350
1589.7096,0.134771
1591.5733,0.136722
1593.4369,0.139582
1595.3006,0.142931
1597.1643,0.146017
1599.0279,0.149586
1600.8916,0.154012
1602.7553,0.159096
1604.6189,0.164358
1606.4826,0.170360
1608.3463,0.177190
1610.2099,0.183421
1612.0736,0.188237
1613.9373,0.193629
1615.8010,0.204341
1617.6646,0.212522
1619.5283,0.213141
1621.3920,0.217243
1623.2556,0.224974
1625.1193,0.228710
1626.9830,0.231611
1628.8466,0.233441
1630.7103,0.232052
1632.5740,0.231408
1634.4376,0.235456
1636.3013,0.235932
1638.1650,0.229436
1640.0286,0.224311
1641.8923,0.219426
1643.7560,0.215709
1645.6197,0.215177
1647.4833,0.210031
1649.3470,0.202034
1651.2107,0.200802
1653.0743,0.201843
1654.9380,0.189123
1656.8017,0.179783
1658.6653,0.172384
1660.5290,0.165575
1662.3927,0.158416
1664.2563,0.149874
1666.1200,0.142789
1667.9837,0.138121
1669.8474,0.131976
1671.7110,0.124705
1673.5747,0.119695
1675.4384,0.114754
1677.3020,0.107628
1679.1657,0.102076
1681.0294,0.096717
1682.8930,0.092914
1684.7567,0.087343
1686.6204,0.080404
1688.4840,0.075101
1690.3477,0.069356
1692.2114,0.063450
1694.0750,0.058923
1695.9387,0.053870
1697.8024,0.048749
1699.6661,0.045298
1701.5297,0.040592
1703.3934,0.037298
1705.2571,0.035344
1707.1207,0.033020
1708.9844,0.030980
1710.8481,0.029148
1712.7117,0.027854
1714.5754,0.027076
1716.4391,0.026619
1718.3027,0.025639
1720.1664,0.024201
1722.0301,0.023192
1723.8937,0.022719
1725.7574,0.022060
1727.6211,0.021416
1729.4848,0.020856
1731.3484,0.020493
1733.2121,0.020268
1735.0758,0.019935
1736.9394,0.019041
1738.8031,0.018748
1740.6668,0.018714
1742.5304,0.018411
1744.3941,0.017840
1746.2578,0.017351
1748.1214,0.016703
1749.9851,0.015903
1751.8488,0.014773
1753.7125,0.013807
1755.5761,0.013120
1757.4398,0.012584
1759.3035,0.011786
1761.1671,0.011443
1763.0308,0.011207
1764.8945,0.010721
1766.7581,0.010033
1768.6218,0.009720
1770.4855,0.009795
1772.3491,0.009968
1774.2128,0.009577
1776.0765,0.009091
1777.9401,0.008887
1779.8038,0.008951
1781.6675,0.008937
1783.5312,0.008943
1785.3948,0.008765
1787.2585,0.008630
1789.1222,0.008729
1790.9858,0.008796
1792.8495,0.008411
1794.7132,0.008173
1796.5768,0.008047
1798.4405,0.007933
1800.3042,0.007981
1802.1678,0.008041
1804.0315,0.007803
1805.8952,0.007692
1807.7589,0.007749
1809.6225,0.007889
1811.4862,0.007760
1813.3499,0.007469
1815.2135,0.007110
1817.0772,0.007182
1818.9409,0.007390
1820.8045,0.007552
1822.6682,0.007806
1824.5319,0.007819
1826.3955,0.007310
1828.2592,0.007316
1830.1229,0.007540
1831.9865,0.007321
1833.8502,0.007285
1835.7139,0.007403
1837.5776,0.007494
1839.4412,0.007624
1841.3049,0.007407
1843.1686,0.007172
1845.0322,0.007245
1846.8959,0.007196
1848.7596,0.007008
1850.6232,0.006962
1852.4869,0.007058
1854.3506,0.007211
1856.2142,0.007493
1858.0779,0.007576
1859.9416,0.007257
1861.8052,0.007187
1863.6689,0.007412
1865.5326,0.007628
1867.3963,0.007511
1869.2599,0.007390
1871.1236,0.007470
1872.9873,0.007421
1874.8509,0.007069
1876.7146,0.007052
1878.5783,0.007292
1880.4419,0.007611
1882.3056,0.007815
1884.1693,0.007667
1886.0329,0.007488
1887.8966,0.007527
1889.7603,0.007772
1891.6240,0.007720
1893.4876,0.007761
1895.3513,0.007933
1897.2150,0.007731
1899.0786,0.007505
1900.9423,0.007659
1902.8060,0.007944
1904.6696,0.008030
1906.5333,0.007788
1908.3970,0.007400
1910.2606,0.007347
1912.1243,0.007015
1913.9880,0.007260
1915.8516,0.008041
1917.7153,0.008138
1919.5790,0.007943
1921.4427,0.008464
1923.3063,0.008471
1925.1700,0.008009
1927.0337,0.007737
1928.8973,0.007847
1930.7610,0.007866
1932.6247,0.007875
1934.4883,0.007250
1936.3520,0.006912
1938.2157,0.008084
1940.0793,0.009005
1941.9430,0.007946
1943.8067,0.007168
1945.6704,0.007799
1947.5340,0.008450
1949.3977,0.009039
1951.2614,0.009270
1953.1250,0.009257
1954.9887,0.009047
1956.8524,0.008655
1958.7160,0.007939
1960.5797,0.008650
1962.4434,0.009369
1964.3070,0.008748
1966.1707,0.008655
1968.0344,0.008532
1969.8980,0.008335
1971.7617,0.008635
1973.6254,0.009384
1975.4891,0.009637
1977.3527,0.010170
1979.2164,0.010815
1981.0801,0.010765
1982.9437,0.010697
1984.8074,0.010627
1986.6711,0.011102
1988.5347,0.010948
1990.3984,0.010331
1992.2621,0.010450
1994.1257,0.010083
1995.9894,0.009371
1997.8531,0.008963
1999.7167,0.008939
2001.5804,0.009474
2003.4441,0.009904
2005.3078,0.009416
2007.1714,0.009812
2009.0351,0.010619
2010.8988,0.010123
2012.7624,0.009991
2014.6261,0.010284
2016.4898,0.010868
2018.3534,0.011003
2020.2171,0.010091
2022.0808,0.010811
2023.9444,0.011522
2025.8081,0.010294
2027.6718,0.009923
2029.5355,0.010951
2031.3991,0.011812
2033.2628,0.011937
2035.1265,0.011525
2036.9901,0.011991
2038.8538,0.012771
2040.7175,0.013285
2042.5811,0.013333
2044.4448,0.012611
2046.3085,0.012333
2048.1721,0.013518
2050.0358,0.014045
2051.8995,0.013072
2053.7631,0.012481
2055.6268,0.012812
2057.4905,0.012469
2059.3542,0.011274
2061.2178,0.011180
2063.0815,0.012157
2064.9452,0.012745
2066.8088,0.013187
2068.6725,0.013415
2070.5362,0.012985
2072.3998,0.012973
2074.2635,0.013484
2076.1272,0.013371
2077.9908,0.012912
2079.8545,0.012921
2081.7182,0.013041
2083.5819,0.013137
2085.4455,0.012933
2087.3092,0.012526
2089.1729,0.012431
2091.0365,0.012385
2092.9002,0.012676
2094.7639,0.012760
2096.6275,0.012592
2098.4912,0.012875
2100.3549,0.013251
2102.2185,0.013076
2104.0822,0.012411
2105.9459,0.012346
2107.8095,0.012629
2109.6732,0.012373
2111.5369,0.012255
2113.4006,0.012731
2115.2642,0.012527
2117.1279,0.012092
2118.9916,0.012470
2120.8552,0.012668
2122.7189,0.011850
2124.5826,0.010845
2126.4462,0.010648
2128.3099,0.010828
2130.1736,0.009883
2132.0372,0.009437
2133.9009,0.010745
2135.7646,0.010880
2137.6282,0.010563
2139.4919,0.010930
2141.3556,0.010815
2143.2193,0.010768
2145.0829,0.010584
2146.9466,0.010335
2148.8103,0.010421
2150.6739,0.010442
2152.5376,0.009717
2154.4013,0.008598
2156.2649,0.008198
2158.1286,0.010274
2159.9923,0.013873
2161.8559,0.014951
2163.7196,0.014123
2165.5833,0.013029
2167.4470,0.012390
2169.3106,0.011985
2171.1743,0.011601
2173.0380,0.012492
2174.9016,0.014213
2176.7653,0.014484
2178.6290,0.013183
2180.4926,0.012710
2182.3563,0.012179
2184.2200,0.011612
2186.0836,0.012459
2187.9473,0.012960
2189.8110,0.012320
2191.6746,0.012081
2193.5383,0.012541
2195.4020,0.012899
2197.2657,0.013362
2199.1293,0.013111
2200.9930,0.012185
2202.8567,0.012429
2204.7203,0.013218
2206.5840,0.012841
2208.4477,0.012497
2210.3113,0.012562
2212.1750,0.011970
2214.0387,0.011894
2215.9023,0.012360
2217.7660,0.012666
2219.6297,0.012894
2221.4934,0.012711
2223.3570,0.012711
2225.2207,0.012791
2227.0844,0.012477
2228.9480,0.012559
2230.8117,0.012504
2232.6754,0.012351
2234.5390,0.012678
2236.4027,0.012527
2238.2664,0.012461
2240.1300,0.012884
2241.9937,0.013108
2243.8574,0.012980
2245.7210,0.012690
2247.5847,0.012511
2249.4484,0.012189
2251.3121,0.012264
2253.1757,0.012757
2255.0394,0.013234
2256.9031,0.013430
2258.7667,0.013093
2260.6304,0.012793
2262.4941,0.012622
2264.3577,0.013040
2266.2214,0.013368
2268.0851,0.013262
2269.9487,0.013323
2271.8124,0.013324
2273.6761,0.013719
2275.5397,0.013938
2277.4034,0.013418
2279.2671,0.013823
2281.1308,0.014495
2282.9944,0.014358
2284.8581,0.014340
2286.7218,0.014112
2288.5854,0.013767
2290.4491,0.013976
2292.3128,0.014085
2294.1764,0.013808
2296.0401,0.013597
2297.9038,0.013481
2299.7674,0.013187
2301.6311,0.012932
2303.4948,0.012870
2305.3585,0.012904
2307.2221,0.013175
2309.0858,0.013537
2310.9495,0.013753
2312.8131,0.013807
2314.6768,0.013752
2316.5405,0.013869
2318.4041,0.014254
2320.2678,0.014933
2322.1315,0.015528
2323.9951,0.015121
2325.8588,0.013720
2327.7225,0.012779
2329.5861,0.012743
2331.4498,0.012984
2333.3135,0.013220
2335.1772,0.013217
2337.0408,0.013584
2338.9045,0.014562
2340.7682,0.015261
2342.6318,0.015367
2344.4955,0.014747
2346.3592,0.013667
2348.2228,0.012762
2350.0865,0.012184
2351.9502,0.012124
2353.8138,0.012595
2355.6775,0.013243
2357.5412,0.014029
2359.4049,0.014792
2361.2685,0.014910
2363.1322,0.014814
2364.9959,0.015372
2366.8595,0.015727
2368.7232,0.015610
2370.5869,0.015442
2372.4505,0.015510
2374.3142,0.015579
2376.1779,0.015542
2378.0415,0.015621
2379.9052,0.015086
2381.7689,0.014422
2383.6325,0.014356
2385.4962,0.014214
2387.3599,0.014060
2389.2236,0.014220
2391.0872,0.014195
2392.9509,0.013943
2394.8146,0.013792
2396.6782,0.014151
2398.5419,0.014516
2400.4056,0.014333
2402.2692,0.014198
2404.1329,0.014441
2405.9966,0.014581
2407.8602,0.014643
2409.7239,0.015012
2411.5876,0.015246
2413.4512,0.015240
2415.3149,0.015119
2417.1786,0.014999
2419.0423,0.015127
2420.9059,0.015320
2422.7696,0.015478
2424.6333,0.015519
2426.4969,0.015470
2428.3606,0.015768
2430.2243,0.015943
2432.0879,0.015703
2433.9516,0.015793
2435.8153,0.016047
2437.6789,0.016074
2439.5426,0.016181
2441.4063,0.016542
2443.2700,0.016846
2445.1336,0.016864
2446.9973,0.016910
2448.8610,0.017002
2450.7246,0.016950
2452.5883,0.017242
2454.4520,0.017499
2456.3156,0.017324
2458.1793,0.017063
2460.0430,0.017090
2461.9066,0.017328
2463.7703,0.017446
2465.6340,0.017706
2467.4976,0.017835
2469.3613,0.017664
2471.2250,0.017649
2473.0887,0.017761
2474.9523,0.017918
2476.8160,0.018115
2478.6797,0.018252
2480.5433,0.018382
2482.4070,0.018589
2484.2707,0.018683
2486.1343,0.018617
2487.9980,0.018584
2489.8617,0.018595
2491.7253,0.018730
2493.5890,0.018830
2495.4527,0.018707
2497.3164,0.018858
2499.1800,0.019337
2501.0437,0.019261
2502.9074,0.019085
2504.7710,0.019451
2506.6347,0.019783
2508.4984,0.019793
2510.3620,0.019964
2512.2257,0.019841
2514.0894,0.019885
2515.9530,0.020113
2517.8167,0.020273
2519.6804,0.020474
2521.5440,0.020415
2523.4077,0.020499
2525.2714,0.020858
2527.1351,0.020892
2528.9987,0.020667
2530.8624,0.020935
2532.7261,0.021118
2534.5897,0.021101
2536.4534,0.021212
2538.3171,0.021507
2540.1807,0.021753
2542.0444,0.021860
2543.9081,0.022058
2545.7717,0.022184
2547.6354,0.022132
2549.4991,0.022200
2551.3627,0.022348
2553.2264,0.022397
2555.0901,0.022547
2556.9538,0.022576
2558.8174,0.022672
2560.6811,0.023122
2562.5448,0.023342
2564.4084,0.023556
2566.2721,0.023692
2568.1358,0.023709
2569.9994,0.023941
2571.8631,0.023866
2573.7268,0.023516
2575.5904,0.023605
2577.4541,0.024241
2579.3178,0.024500
2581.1815,0.024537
2583.0451,0.024499
2584.9088,0.024632
2586.7725,0.025102
2588.6361,0.025237
2590.4998,0.025482
2592.3635,0.025755
2594.2271,0.025743
2596.0908,0.025751
2597.9545,0.025961
2599.8181,0.026064
2601.6818,0.026283
2603.5455,0.026558
2605.4091,0.026737
2607.2728,0.026971
2609.1365,0.027071
2611.0002,0.027187
2612.8638,0.027504
2614.7275,0.027695
2616.5912,0.027694
2618.4548,0.027943
2620.3185,0.028242
2622.1822,0.028513
2624.0458,0.028656
2625.9095,0.028670
2627.7732,0.028911
2629.6368,0.029222
2631.5005,0.029348
2633.3642,0.029520
2635.2279,0.029818
2637.0915,0.030142
2638.9552,0.030202
2640.8189,0.030272
2642.6825,0.030423
2644.5462,0.030527
2646.4099,0.030837
2648.2735,0.031037
2650.1372,0.031038
2652.0009,0.031028
2653.8645,0.031193
2655.7282,0.031476
2657.5919,0.031572
2659.4555,0.031483
2661.3192,0.031367
2663.1829,0.031316
2665.0466,0.031327
2666.9102,0.031403
2668.7739,0.031369
2670.6376,0.031535
2672.5012,0.031740
2674.3649,0.031860
2676.2286,0.032093
2678.0922,0.032404
2679.9559,0.032476
2681.8196,0.032492
2683.6832,0.032657
2685.5469,0.032743
2687.4106,0.032940
2689.2742,0.033132
2691.1379,0.033291
2693.0016,0.033429
2694.8653,0.033603
2696.7289,0.033885
2698.5926,0.034077
2700.4563,0.034293
2702.3199,0.034385
2704.1836,0.034326
2706.0473,0.034576
2707.9109,0.035043
2709.7746,0.035391
2711.6383,0.035427
2713.5019,0.035555
2715.3656,0.035839
2717.2293,0.036136
2719.0930,0.036374
2720.9566,0.036619
2722.8203,0.036875
2724.6840,0.037077
2726.5476,0.037376
2728.4113,0.037699
2730.2750,0.037949
2732.1386,0.038236
2734.0023,0.038439
2735.8660,0.038720
2737.7296,0.039043
2739.5933,0.039262
2741.4570,0.039415
2743.3206,0.039764
2745.1843,0.040134
2747.0480,0.040356
2748.9117,0.040496
2750.7753,0.040689
2752.6390,0.040822
2754.5027,0.041116
2756.3663,0.041505
2758.2300,0.041786
2760.0937,0.042127
2761.9573,0.042505
2763.8210,0.042967
2765.6847,0.043180
2767.5483,0.043139
2769.4120,0.043438
2771.2757,0.043898
2773.1394,0.044267
2775.0030,0.044514
2776.8667,0.044740
2778.7304,0.044992
2780.5940,0.045400
2782.4577,0.045736
2784.3214,0.045995
2786.1850,0.046194
2788.0487,0.046565
2789.9124,0.046988
2791.7760,0.047254
2793.6397,0.047416
2795.5034,0.047893
2797.3670,0.048321
2799.2307,0.048429
2801.0944,0.048620
2802.9581,0.049102
2804.8217,0.049494
2806.6854,0.049550
2808.5491,0.049889
2810.4127,0.050524
2812.2764,0.050892
2814.1401,0.051089
2816.0037,0.051458
2817.8674,0.051977
2819.7311,0.052296
2821.5947,0.052479
2823.4584,0.052877
2825.3221,0.053301
2827.1857,0.053552
2829.0494,0.054214
2830.9131,0.054719
2832.7768,0.055202
2834.6404,0.055761
2836.5041,0.056630
2838.3678,0.057246
2840.2314,0.057571
2842.0951,0.058418
2843.9588,0.059512
2845.8224,0.060632
2847.6861,0.062035
2849.5498,0.063137
2851.4134,0.063950
2853.2771,0.064527
2855.1408,0.065146
2857.0045,0.065433
2858.8681,0.065607
2860.7318,0.065977
2862.5955,0.066439
2864.4591,0.066961
2866.3228,0.067626
2868.1865,0.068215
2870.0501,0.068889
2871.9138,0.069322
2873.7775,0.069482
2875.6411,0.069354
2877.5048,0.069184
2879.3685,0.068864
2881.2321,0.068626
2883.0958,0.068488
2884.9595,0.068680
2886.8232,0.068610
2888.6868,0.068852
2890.5505,0.069297
2892.4142,0.069508
2894.2778,0.069861
2896.1415,0.070568
2898.0052,0.070997
2899.8688,0.071571
2901.7325,0.072371
2903.5962,0.073317
2905.4598,0.074097
2907.3235,0.074840
2909.1872,0.075591
2911.0509,0.076908
2912.9145,0.078307
2914.7782,0.079434
2916.6419,0.080122
2918.5055,0.081163
2920.3692,0.082174
2922.2329,0.082940
2924.0965,0.083094
2925.9602,0.083449
2927.8239,0.083543
2929.6875,0.083210
2931.5512,0.082612
2933.4149,0.082371
2935.2785,0.082313
2937.1422,0.081768
2939.0059,0.080624
2940.8696,0.079874
2942.7332,0.079395
2944.5969,0.078856
2946.4606,0.078468
2948.3242,0.078684
2950.1879,0.078998
2952.0516,0.079375
2953.9152,0.079795
2955.7789,0.080370
2957.6426,0.080858
2959.5062,0.081022
2961.3699,0.080132
2963.2336,0.079255
2965.0972,0.078692
2966.9609,0.077871
2968.8246,0.076558
2970.6883,0.075766
2972.5519,0.075070
2974.4156,0.074039
2976.2793,0.072975
2978.1429,0.072062
2980.0066,0.071214
2981.8703,0.070410
2983.7339,0.069402
2985.5976,0.068795
2987.4613,0.068517
2989.3249,0.068080
2991.1886,0.067830
2993.0523,0.067682
2994.9160,0.067611
2996.7796,0.067724
2998.6433,0.067279
3000.5070,0.067400
3002.3706,0.068065
3004.2343,0.068470
3006.0980,0.068538
3007.9616,0.068872
3009.8253,0.069271
3011.6890,0.069746
3013.5526,0.070208
3015.4163,0.070556
3017.2800,0.070811
3019.1436,0.071571
3021.0073,0.072032
3022.8710,0.072650
3024.7347,0.073286
3026.5983,0.073642
3028.4620,0.074201
3030.3257,0.075459
3032.1893,0.076234
3034.0530,0.076361
3035.9167,0.076302
3037.7803,0.076869
3039.6440,0.077502
3041.5077,0.078030
3043.3713,0.078274
3045.2350,0.078764
3047.0987,0.079161
3048.9624,0.079489
3050.8260,0.079913
3052.6897,0.080449
3054.5534,0.081092
3056.4170,0.081665
3058.2807,0.081660
3060.1444,0.081905
3062.0080,0.081972
3063.8717,0.082188
3065.7354,0.082593
3067.5990,0.082702
3069.4627,0.082500
3071.3264,0.082768
3073.1900,0.082614
3075.0537,0.082456
3076.9174,0.082835
3078.7811,0.082858
3080.6447,0.082176
3082.5084,0.081932
3084.3721,0.082017
3086.2357,0.081954
3088.0994,0.081664
3089.9631,0.081621
3091.8267,0.081617
3093.6904,0.081546
3095.5541,0.081495
3097.4177,0.081731
3099.2814,0.081721
3101.1451,0.081296
3103.0087,0.080847
3104.8724,0.081039
3106.7361,0.081702
3108.5998,0.082484
3110.4634,0.082423
3112.3271,0.082335
3114.1908,0.082455
3116.0544,0.082660
3117.9181,0.082646
3119.7818,0.082662
3121.6454,0.082959
3123.5091,0.083692
3125.3728,0.084256
3127.2364,0.084840
3129.1001,0.085337
3130.9638,0.085713
3132.8275,0.086287
3134.6911,0.086827
3136.5548,0.087447
3138.4185,0.088246
3140.2821,0.088616
3142.1458,0.089258
3144.0095,0.089764
3145.8731,0.090146
3147.7368,0.090804
3149.6005,0.091846
3151.4641,0.092387
3153.3278,0.092707
3155.1915,0.093222
3157.0551,0.093981
3158.9188,0.094518
3160.7825,0.095702
3162.6462,0.096497
3164.5098,0.096655
3166.3735,0.097154
3168.2372,0.098043
3170.1008,0.098959
3171.9645,0.099814
3173.8282,0.100206
3175.6918,0.100856
3177.5555,0.101223
3179.4192,0.101718
3181.2828,0.101958
3183.1465,0.102590
3185.0102,0.103196
3186.8739,0.103472
3188.7375,0.104056
3190.6012,0.105124
3192.4649,0.105155
3194.3285,0.105332
3196.1922,0.105998
3198.0559,0.107033
3199.9195,0.107302
3201.7832,0.107335
3203.6469,0.107531
3205.5105,0.108092
3207.3742,0.108308
3209.2379,0.108543
3211.1015,0.108464
3212.9652,0.108972
3214.8289,0.109881
3216.6926,0.110415
3218.5562,0.109959
3220.4199,0.109683
3222.2836,0.110160
3224.1472,0.110865
3226.0109,0.110751
3227.8746,0.111463
3229.7382,0.112315
3231.6019,0.112742
3233.4656,0.112287
3235.3292,0.112479
3237.1929,0.113304
3239.0566,0.113918
3240.9202,0.114205
3242.7839,0.114784
3244.6476,0.115425
3246.5113,0.116139
3248.3749,0.116394
3250.2386,0.117086
3252.1023,0.117390
3253.9659,0.118252
3255.8296,0.119169
3257.6933,0.119584
3259.5569,0.119676
3261.4206,0.120250
3263.2843,0.120402
3265.1479,0.121044
3267.0116,0.121611
3268.8753,0.121890
3270.7390,0.122128
3272.6026,0.121977
3274.4663,0.121316
3276.3300,0.121531
3278.1936,0.121701
3280.0573,0.121377
3281.9210,0.120499
3283.7846,0.120296
3285.6483,0.119864
3287.5120,0.119616
3289.3756,0.118994
3291.2393,0.118553
3293.1030,0.118006
3294.9666,0.116954
3296.8303,0.115755
3298.6940,0.115435
3300.5577,0.114616
3302.4213,0.113584
3304.2850,0.112424
3306.1487,0.111682
3308.0123,0.110486
3309.8760,0.109271
3311.7397,0.108252
3313.6033,0.107103
3315.4670,0.106121
3317.3307,0.105739
3319.1943,0.105076
3321.0580,0.104357
3322.9217,0.103611
3324.7854,0.102858
3326.6490,0.102036
3328.5127,0.101590
3330.3764,0.100951
3332.2400,0.099929
3334.1037,0.098652
3335.9674,0.097919
3337.8310,0.097586
3339.6947,0.097469
3341.5584,0.096889
3343.4220,0.096051
3345.2857,0.095059
3347.1494,0.094573
3349.0130,0.094089
3350.8767,0.093249
3352.7404,0.092333
3354.6041,0.091989
3356.4677,0.091935
3358.3314,0.091619
3360.1951,0.090418
3362.0587,0.089537
3363.9224,0.088832
3365.7861,0.088533
3367.6497,0.088578
3369.5134,0.088190
3371.3771,0.086965
3373.2407,0.086674
3375.1044,0.087057
3376.9681,0.086817
3378.8317,0.086007
3380.6954,0.085319
3382.5591,0.084182
3384.4228,0.083607
3386.2864,0.083456
3388.1501,0.083367
3390.0138,0.082917
3391.8774,0.082286
3393.7411,0.081621
3395.6048,0.081195
3397.4684,0.080976
3399.3321,0.080848
3401.1958,0.080277
3403.0594,0.079183
3404.9231,0.078547
3406.7868,0.078325
3408.6505,0.077724
3410.5141,0.077441
3412.3778,0.077206
3414.2415,0.076838
3416.1051,0.076209
3417.9688,0.075695
3419.8325,0.075526
3421.6961,0.075517
3423.5598,0.074712
3425.4235,0.073798
3427.2871,0.073022
3429.1508,0.072034
3431.0145,0.071458
3432.8781,0.071461
3434.7418,0.070956
3436.6055,0.070553
3438.4692,0.070079
3440.3328,0.069271
3442.1965,0.068322
3444.0602,0.067942
3445.9238,0.067807
3447.7875,0.067531
3449.6512,0.066630
3451.5148,0.065761
3453.3785,0.065430
3455.2422,0.065264
3457.1058,0.064800
3458.9695,0.064177
3460.8332,0.063435
3462.6969,0.062953
3464.5605,0.062220
3466.4242,0.061330
3468.2879,0.060806
3470.1515,0.060822
3472.0152,0.060238
3473.8789,0.059010
3475.7425,0.058319
3477.6062,0.058229
3479.4699,0.057823
3481.3335,0.057141
3483.1972,0.056392
3485.0609,0.055750
3486.9245,0.055279
3488.7882,0.055512
3490.6519,0.055285
3492.5156,0.054335
3494.3792,0.053039
3496.2429,0.051851
3498.1066,0.051009
3499.9702,0.050591
3501.8339,0.050507
3503.6976,0.050146
3505.5612,0.049009
3507.4249,0.047979
3509.2886,0.047838
3511.1522,0.047623
3513.0159,0.046701
3514.8796,0.046437
3516.7432,0.045780
3518.6069,0.044193
3520.4706,0.043846
3522.3343,0.043708
3524.1979,0.042750
3526.0616,0.042196
3527.9253,0.041940
3529.7889,0.041239
3531.6526,0.040418
3533.5163,0.039660
3535.3799,0.038663
3537.2436,0.038299
3539.1073,0.038370
3540.9709,0.037462
3542.8346,0.036425
3544.6983,0.036034
3546.5620,0.035023
3548.4256,0.034099
3550.2893,0.033452
3552.1530,0.033252
3554.0166,0.033398
3555.8803,0.032561
3557.7440,0.031082
3559.6076,0.029726
3561.4713,0.029360
3563.3350,0.029207
3565.1986,0.028014
3567.0623,0.027082
3568.9260,0.026672
3570.7896,0.026242
3572.6533,0.025591
3574.5170,0.025139
3576.3807,0.024968
3578.2443,0.023809
3580.1080,0.022671
3581.9717,0.022734
3583.8353,0.022551
3585.6990,0.021510
3587.5627,0.020703
3589.4263,0.020266
3591.2900,0.019695
3593.1537,0.019429
3595.0173,0.019112
3596.8810,0.018470
3598.7447,0.017926
3600.6084,0.016896
3602.4720,0.015702
3604.3357,0.014997
3606.1994,0.014732
3608.0630,0.014820
3609.9267,0.014474
3611.7904,0.013836
3613.6540,0.013389
3615.5177,0.012572
3617.3814,0.011436
3619.2450,0.010687
3621.1087,0.010793
3622.9724,0.010707
3624.8360,0.010095
3626.6997,0.009492
3628.5634,0.008487
3630.4271,0.007589
3632.2907,0.007728
3634.1544,0.007321
3636.0181,0.006492
3637.8817,0.006322
3639.7454,0.006055
3641.6091,0.005478
3643.4727,0.004909
3645.3364,0.004401
3647.2001,0.003872
3649.0637,0.002864
3650.9274,0.002090
3652.7911,0.001746
3654.6547,0.001189
3656.5184,0.000777
3658.3821,0.000952
3660.2458,0.000838
3662.1094,0.000243
3663.9731,-0.000261
3665.8368,-0.000858
3667.7004,-0.001153
3669.5641,-0.001167
3671.4278,-0.001991
3673.2914,-0.002679
3675.1551,-0.003177
3677.0188,-0.003557
3678.8824,-0.003403
3680.7461,-0.003477
3682.6098,-0.003624
3684.4735,-0.003835
3686.3371,-0.004167
3688.2008,-0.004501
3690.0645,-0.004819
3691.9281,-0.005154
3693.7918,-0.005155
3695.6555,-0.004799
3697.5191,-0.004669
3699.3828,-0.004755
3701.2465,-0.005142
3703.1101,-0.005571
3704.9738,-0.005524
3706.8375,-0.005395
3708.7011,-0.005395
3710.5648,-0.005751
3712.4285,-0.006180
3714.2922,-0.006016
3716.1558,-0.005426
3718.0195,-0.005258
3719.8832,-0.005763
3721.7468,-0.006062
3723.6105,-0.005980
3725.4742,-0.006012
3727.3378,-0.005703
3729.2015,-0.005626
3731.0652,-0.006160
3732.9288,-0.006366
3734.7925,-0.006204
3736.6562,-0.006577
3738.5199,-0.006868
3740.3835,-0.006856
3742.2472,-0.006679
3744.1109,-0.006755
3745.9745,-0.007009
3747.8382,-0.006622
3749.7019,-0.006557
3751.5655,-0.007031
3753.4292,-0.006925
3755.2929,-0.006354
3757.1565,-0.006252
3759.0202,-0.006423
3760.8839,-0.006245
3762.7475,-0.006136
3764.6112,-0.006386
3766.4749,-0.006283
3768.3386,-0.005888
3770.2022,-0.005973
3772.0659,-0.006059
3773.9296,-0.006215
3775.7932,-0.006497
3777.6569,-0.006710
3779.5206,-0.006541
3781.3842,-0.006162
3783.2479,-0.006021
3785.1116,-0.006273
3786.9752,-0.006469
3788.8389,-0.006139
3790.7026,-0.005823
3792.5662,-0.006088
3794.4299,-0.006189
3796.2936,-0.006091
3798.1573,-0.006227
3800.0209,-0.006565
3801.8846,-0.006695
3803.7483,-0.006278
3805.6119,-0.006241
3807.4756,-0.006832
3809.3393,-0.006571
3811.2029,-0.006170
3813.0666,-0.006247
3814.9303,-0.006384
3816.7939,-0.006738
3818.6576,-0.006851
3820.5213,-0.006930
3822.3850,-0.007082
3824.2486,-0.006564
3826.1123,-0.006109
3827.9760,-0.006132
3829.8396,-0.006248
3831.7033,-0.006200
3833.5670,-0.006234
3835.4306,-0.006362
3837.2943,-0.006754
3839.1580,-0.006920
3841.0216,-0.006548
3842.8853,-0.006238
3844.7490,-0.006448
3846.6126,-0.006422
3848.4763,-0.006104
3850.3400,-0.005915
3852.2037,-0.006371
3854.0673,-0.006999
3855.9310,-0.006784
3857.7947,-0.006506
3859.6583,-0.006297
3861.5220,-0.006107
3863.3857,-0.006074
3865.2493,-0.006312
3867.1130,-0.006393
3868.9767,-0.006238
3870.8403,-0.006610
3872.7040,-0.006426
3874.5677,-0.006258
3876.4314,-0.005957
3878.2950,-0.005696
3880.1587,-0.005865
3882.0224,-0.005680
3883.8860,-0.005404
3885.7497,-0.005693
3887.6134,-0.005838
3889.4770,-0.005562
3891.3407,-0.005946
3893.2044,-0.006148
3895.0680,-0.005570
3896.9317,-0.005515
3898.7954,-0.005603
3900.6590,-0.005621
3902.5227,-0.005622
3904.3864,-0.005648
3906.2501,-0.005552
3908.1137,-0.005329
3909.9774,-0.005330
3911.8411,-0.005442
3913.7047,-0.005210
3915.5684,-0.005313
3917.4321,-0.005758
3919.2957,-0.005833
3921.1594,-0.005185
3923.0231,-0.004809
3924.8867,-0.005190
3926.7504,-0.005322
3928.6141,-0.005060
3930.4777,-0.005144
3932.3414,-0.005471
3934.2051,-0.005330
3936.0688,-0.004900
3937.9324,-0.004798
3939.7961,-0.004553
3941.6598,-0.004420
3943.5234,-0.004910
3945.3871,-0.005341
3947.2508,-0.005280
3949.1144,-0.005326
3950.9781,-0.005369
3952.8418,-0.005095
3954.7054,-0.004878
3956.5691,-0.004964
3958.4328,-0.005031
3960.2965,-0.005014
3962.1601,-0.004976
3964.0238,-0.005038
3965.8875,-0.004957
3967.7511,-0.004777
3969.6148,-0.004777
3971.4785,-0.004509
3973.3421,-0.004581
3975.2058,-0.005048
3977.0695,-0.005092
3978.9331,-0.005118
3980.7968,-0.004832
3982.6605,-0.004609
3984.5241,-0.004662
3986.3878,-0.004640
3988.2515,-0.004759
3990.1152,-0.004715
3991.9788,-0.004442
3993.8425,-0.004962
3995.7062,-0.005366
3997.5698,-0.005099
3999.4335,-0.005039
