Wavenumber,Intensity
650.4205,0.290744
652.2841,0.290161
654.1478,0.289726
656.0115,0.288562
657.8751,0.287428
659.7388,0.286956
661.6025,0.286535
663.4661,0.283036
665.3298,0.277739
667.1935,0.281128
669.0571,0.290571
670.9208,0.282305
672.7845,0.277822
674.6481,0.278557
676.5118,0.277311
678.3755,0.275300
680.2392,0.272739
682.1028,0.270035
683.9665,0.268901
685.8302,0.267778
687.6938,0.266822
689.5575,0.266022
691.4212,0.263513
693.2848,0.261416
695.1485,0.261316
697.0122,0.262045
698.8758,0.261064
700.7395,0.257728
702.6032,0.255616
704.4669,0.254342
706.3305,0.250404
708.1942,0.247487
710.0579,0.246176
711.9215,0.244571
713.7852,0.243062
715.6489,0.241727
717.5125,0.240369
719.3762,0.239372
721.2399,0.238101
723.1035,0.235864
724.9672,0.231851
726.8309,0.226659
728.6945,0.222252
730.5582,0.218998
732.4219,0.215990
734.2856,0.212530
736.1492,0.209331
738.0129,0.207183
739.8766,0.204897
741.7402,0.203471
743.6039,0.202188
745.4676,0.199595
747.3312,0.196123
749.1949,0.193623
751.0586,0.191707
752.9222,0.189406
754.7859,0.187243
756.6496,0.186019
758.5132,0.184746
760.3769,0.183192
762.2406,0.181745
764.1043,0.180805
765.9679,0.180178
767.8316,0.179385
769.6953,0.177730
771.5589,0.175581
773.4226,0.173484
775.2863,0.172027
777.1499,0.170869
779.0136,0.169518
780.8773,0.167474
782.7409,0.165269
784.6046,0.163841
786.4683,0.162562
788.3320,0.160708
790.1956,0.158729
792.0593,0.157018
793.9230,0.156314
795.7866,0.155613
797.6503,0.154632
799.5140,0.154022
801.3776,0.153692
803.2413,0.153099
805.1050,0.152450
806.9686,0.151235
808.8323,0.149840
810.6960,0.149078
812.5596,0.148570
814.4233,0.147841
816.2870,0.147221
818.1507,0.146471
820.0143,0.145227
821.8780,0.143423
823.7417,0.141457
825.6053,0.139881
827.4690,0.138966
829.3327,0.137881
831.1963,0.136946
833.0600,0.135892
834.9237,0.134820
836.7873,0.134008
838.6510,0.133193
840.5147,0.132300
842.3784,0.131561
844.2420,0.130821
846.1057,0.130300
847.9694,0.130050
849.8330,0.130157
851.6967,0.129943
853.5604,0.129710
855.4240,0.129876
857.2877,0.129851
859.1514,0.129803
861.0150,0.130034
862.8787,0.130240
864.7424,0.130583
866.6060,0.131401
868.4697,0.132498
870.3334,0.133089
872.1971,0.133285
874.0607,0.133412
875.9244,0.133443
877.7881,0.133000
879.6517,0.132374
881.5154,0.131605
883.3791,0.130895
885.2427,0.130335
887.1064,0.129864
888.9701,0.129670
890.8337,0.129877
892.6974,0.130017
894.5611,0.129841
896.4247,0.129562
898.2884,0.129226
900.1521,0.128628
902.0158,0.128196
903.8794,0.128140
905.7431,0.128372
907.6068,0.128687
909.4704,0.129108
911.3341,0.129601
913.1978,0.130415
915.0614,0.131301
916.9251,0.131989
918.7888,0.132619
920.6524,0.133134
922.5161,0.133281
924.3798,0.133235
926.2435,0.133203
928.1071,0.133262
929.9708,0.133294
931.8345,0.133598
933.6981,0.134358
935.5618,0.135479
937.4255,0.136823
939.2891,0.138457
941.1528,0.140323
943.0165,0.142479
944.8801,0.144570
946.7438,0.146246
948.6075,0.147730
950.4711,0.149216
952.3348,0.150682
954.1985,0.152573
956.0622,0.155199
957.9258,0.158632
959.7895,0.162744
961.6532,0.167224
963.5168,0.171483
965.3805,0.175188
967.2442,0.178024
969.1078,0.180011
970.9715,0.181380
972.8352,0.182525
974.6988,0.183931
976.5625,0.185858
978.4262,0.188334
980.2899,0.191303
982.1535,0.194628
984.0172,0.198431
985.8809,0.202291
987.7445,0.206139
989.6082,0.210335
991.4719,0.214804
993.3355,0.219397
995.1992,0.223973
997.0629,0.228371
998.9265,0.232583
1000.7902,0.236706
1002.6539,0.240863
1004.5175,0.245295
1006.3812,0.250277
1008.2449,0.255687
1010.1086,0.261457
1011.9722,0.267333
1013.8359,0.273280
1015.6996,0.279155
1017.5632,0.284807
1019.4269,0.289694
1021.2906,0.293549
1023.1542,0.296417
1025.0179,0.298807
1026.8816,0.300969
1028.7452,0.302746
1030.6089,0.304045
1032.4726,0.304741
1034.3362,0.304569
1036.1999,0.303766
1038.0636,0.302602
1039.9273,0.301099
1041.7909,0.299537
1043.6546,0.298220
1045.5183,0.297326
1047.3819,0.296815
1049.2456,0.296742
1051.1093,0.296973
1052.9729,0.297306
1054.8366,0.297916
1056.7003,0.298507
1058.5639,0.298819
1060.4276,0.298941
1062.2913,0.299354
1064.1550,0.299983
1066.0186,0.300687
1067.8823,0.301229
1069.7460,0.301350
1071.6096,0.301176
1073.4733,0.300315
1075.3370,0.298375
1077.2006,0.295596
1079.0643,0.291860
1080.9280,0.287066
1082.7916,0.281513
1084.6553,0.275841
1086.5190,0.270295
1088.3826,0.265079
1090.2463,0.260624
1092.1100,0.256861
1093.9737,0.253505
1095.8373,0.250296
1097.7010,0.247134
1099.5647,0.244150
1101.4283,0.241243
1103.2920,0.238357
1105.1557,0.235839
1107.0193,0.233953
1108.8830,0.232767
1110.7467,0.232261
1112.6103,0.232095
1114.4740,0.231818
1116.3377,0.230858
1118.2014,0.228990
1120.0650,0.226103
1121.9287,0.222476
1123.7924,0.218727
1125.6560,0.215199
1127.5197,0.212403
1129.3834,0.210602
1131.2470,0.209817
1133.1107,0.210228
1134.9744,0.211454
1136.8380,0.213058
1138.7017,0.214486
1140.5654,0.215603
1142.4290,0.216278
1144.2927,0.216508
1146.1564,0.216650
1148.0201,0.216932
1149.8837,0.217271
1151.7474,0.217711
1153.6111,0.218042
1155.4747,0.217949
1157.3384,0.217387
1159.2021,0.216283
1161.0657,0.214423
1162.9294,0.211845
1164.7931,0.208438
1166.6567,0.203959
1168.5204,0.198713
1170.3841,0.193060
1172.2477,0.187012
1174.1114,0.180645
1175.9751,0.174576
1177.8388,0.169312
1179.7024,0.165028
1181.5661,0.161780
1183.4298,0.159381
1185.2934,0.157808
1187.1571,0.156904
1189.0208,0.156484
1190.8844,0.156385
1192.7481,0.156563
1194.6118,0.157047
1196.4754,0.157975
1198.3391,0.159209
1200.2028,0.160663
1202.0665,0.162235
1203.9301,0.163703
1205.7938,0.164854
1207.6575,0.165910
1209.5211,0.166806
1211.3848,0.167739
1213.2485,0.168923
1215.1121,0.170413
1216.9758,0.172437
1218.8395,0.174959
1220.7031,0.177733
1222.5668,0.180676
1224.4305,0.183861
1226.2941,0.186936
1228.1578,0.189539
1230.0215,0.191808
1231.8852,0.193704
1233.7488,0.195264
1235.6125,0.196291
1237.4762,0.196604
1239.3398,0.196199
1241.2035,0.195193
1243.0672,0.193511
1244.9308,0.191176
1246.7945,0.188446
1248.6582,0.185673
1250.5218,0.182942
1252.3855,0.180413
1254.2492,0.178326
1256.1129,0.176511
1257.9765,0.174804
1259.8402,0.173381
1261.7039,0.171949
1263.5675,0.170729
1265.4312,0.169742
1267.2949,0.168599
1269.1585,0.167670
1271.0222,0.167040
1272.8859,0.166431
1274.7495,0.165728
1276.6132,0.165178
1278.4769,0.164673
1280.3405,0.164081
1282.2042,0.163240
1284.0679,0.162183
1285.9316,0.161186
1287.7952,0.160678
1289.6589,0.160540
1291.5226,0.160574
1293.3862,0.160863
1295.2499,0.161483
1297.1136,0.162422
1298.9772,0.163460
1300.8409,0.164406
1302.7046,0.165201
1304.5682,0.166031
1306.4319,0.166836
1308.2956,0.167582
1310.1592,0.168177
1312.0229,0.168889
1313.8866,0.169120
1315.7503,0.168668
1317.6139,0.168405
1319.4776,0.168057
1321.3413,0.166824
1323.2049,0.165364
1325.0686,0.164161
1326.9323,0.163271
1328.7959,0.162749
1330.6596,0.162487
1332.5233,0.162450
1334.3869,0.162368
1336.2506,0.162911
1338.1143,0.164890
1339.9780,0.167058
1341.8416,0.166734
1343.7053,0.165712
1345.5690,0.165387
1347.4326,0.165182
1349.2963,0.165144
1351.1600,0.165131
1353.0236,0.165279
1354.8873,0.165672
1356.7510,0.165674
1358.6146,0.165574
1360.4783,0.167564
1362.3420,0.172723
1364.2056,0.176225
1366.0693,0.177317
1367.9330,0.180090
1369.7967,0.182247
1371.6603,0.184009
1373.5240,0.189322
1375.3877,0.194302
1377.2513,0.195147
1379.1150,0.194825
1380.9787,0.193155
1382.8423,0.190780
1384.7060,0.189220
1386.5697,0.191414
1388.4333,0.192343
1390.2970,0.189078
1392.1607,0.187729
1394.0244,0.190721
1395.8880,0.193305
1397.7517,0.193843
1399.6154,0.194946
1401.4790,0.192230
1403.3427,0.190587
1405.2064,0.190978
1407.0700,0.189141
1408.9337,0.187097
1410.7974,0.186711
1412.6610,0.185790
1414.5247,0.183628
1416.3884,0.182600
1418.2520,0.186662
1420.1157,0.187817
1421.9794,0.183024
1423.8431,0.182711
1425.7067,0.182925
1427.5704,0.183625
1429.4341,0.188585
1431.2977,0.192183
1433.1614,0.193254
1435.0251,0.199303
1436.8887,0.211586
1438.7524,0.212753
1440.6161,0.210776
1442.4797,0.211823
1444.3434,0.212255
1446.2071,0.213883
1448.0707,0.216977
1449.9344,0.216191
1451.7981,0.213059
1453.6618,0.210163
1455.5254,0.213291
1457.3891,0.221922
1459.2528,0.213796
1461.1164,0.203325
1462.9801,0.199272
1464.8438,0.199582
1466.7074,0.191910
1468.5711,0.178438
1470.4348,0.166592
1472.2984,0.160427
1474.1621,0.154608
1476.0258,0.149435
1477.8895,0.144985
1479.7531,0.142640
1481.6168,0.142920
1483.4805,0.142252
1485.3441,0.142893
1487.2078,0.148751
1489.0715,0.159728
1490.9351,0.167828
1492.7988,0.167302
1494.6625,0.171593
1496.5261,0.186224
1498.3898,0.197546
1500.2535,0.200495
1502.1171,0.199380
1503.9808,0.201544
1505.8445,0.224161
1507.7082,0.252369
1509.5718,0.249870
1511.4355,0.249666
1513.2992,0.252400
1515.1628,0.255883
1517.0265,0.261689
1518.8902,0.262467
1520.7538,0.269462
1522.6175,0.276973
1524.4812,0.275110
1526.3448,0.277865
1528.2085,0.278234
1530.0722,0.275586
1531.9359,0.276455
1533.7995,0.280863
1535.6632,0.274059
1537.5269,0.268463
1539.3905,0.276434
1541.2542,0.283115
1543.1179,0.277084
1544.9815,0.270839
1546.8452,0.262397
1548.7089,0.255843
1550.5725,0.249561
1552.4362,0.241036
1554.2999,0.232542
1556.1635,0.225500
1558.0272,0.229549
1559.8909,0.231524
1561.7546,0.216088
1563.6182,0.206414
1565.4819,0.200318
1567.3456,0.195381
1569.2092,0.193832
1571.0729,0.189061
1572.9366,0.181842
1574.8002,0.181101
1576.6639,0.184220
1578.5276,0.180207
1580.3912,0.176405
1582.2549,0.175597
1584.1186,0.175502
1585.9822,0.176463
1587.8459,0.178318
1589.7096,0.180930
1591.5733,0.184321
1593.4369,0.188961
1595.3006,0.194287
1597.1643,0.199508
1599.0279,0.205202
1600.8916,0.212362
1602.7553,0.220306
1604.6189,0.228365
1606.4826,0.237150
1608.3463,0.247715
1610.2099,0.257157
1612.0736,0.263819
1613.9373,0.270326
1615.8010,0.285121
1617.6646,0.299804
1619.5283,0.300353
1621.3920,0.303641
1623.2556,0.314770
1625.1193,0.320332
1626.9830,0.322797
1628.8466,0.325345
1630.7103,0.322782
1632.5740,0.319197
1634.4376,0.321981
1636.3013,0.326179
1638.1650,0.318434
1640.0286,0.308554
1641.8923,0.299735
1643.7560,0.291870
1645.6197,0.288376
1647.4833,0.283440
1649.3470,0.272366
1651.2107,0.265199
1653.0743,0.267341
1654.9380,0.257125
1656.8017,0.243719
1658.6653,0.233115
1660.5290,0.224612
1662.3927,0.217198
1664.2563,0.208352
1666.1200,0.198757
1667.9837,0.191495
1669.8474,0.184813
1671.7110,0.176613
1673.5747,0.168857
1675.4384,0.162084
1677.3020,0.153226
1679.1657,0.144634
1681.0294,0.136399
1682.8930,0.130523
1684.7567,0.124451
1686.6204,0.115689
1688.4840,0.107751
1690.3477,0.099898
1692.2114,0.091814
1694.0750,0.084745
1695.9387,0.077467
1697.8024,0.070589
1699.6661,0.065891
1701.5297,0.060721
1703.3934,0.055764
1705.2571,0.052574
1707.1207,0.049606
1708.9844,0.046903
1710.8481,0.044560
1712.7117,0.042860
1714.5754,0.042019
1716.4391,0.042725
1718.3027,0.043718
1720.1664,0.043357
1722.0301,0.043392
1723.8937,0.045112
1725.7574,0.047484
1727.6211,0.050693
1729.4848,0.055510
1731.3484,0.062177
1733.2121,0.073256
1735.0758,0.087305
1736.9394,0.094647
1738.8031,0.103267
1740.6668,0.113133
1742.5304,0.117616
1744.3941,0.117698
1746.2578,0.114065
1748.1214,0.106253
1749.9851,0.095132
1751.8488,0.081389
1753.7125,0.068434
1755.5761,0.056854
1757.4398,0.045755
1759.3035,0.036992
1761.1671,0.030560
1763.0308,0.025081
1764.8945,0.021509
1766.7581,0.018814
1768.6218,0.016568
1770.4855,0.014725
1772.3491,0.013843
1774.2128,0.013084
1776.0765,0.012093
1777.9401,0.011184
1779.8038,0.010735
1781.6675,0.010250
1783.5312,0.009648
1785.3948,0.009213
1787.2585,0.009117
1789.1222,0.008672
1790.9858,0.008300
1792.8495,0.007904
1794.7132,0.007522
1796.5768,0.007118
1798.4405,0.006888
1800.3042,0.006637
1802.1678,0.006472
1804.0315,0.006158
1805.8952,0.005722
1807.7589,0.005343
1809.6225,0.005382
1811.4862,0.005339
1813.3499,0.005009
1815.2135,0.004530
1817.0772,0.004615
1818.9409,0.004679
1820.8045,0.004591
1822.6682,0.004545
1824.5319,0.004452
1826.3955,0.004249
1828.2592,0.003951
1830.1229,0.003665
1831.9865,0.003608
1833.8502,0.003550
1835.7139,0.003576
1837.5776,0.003482
1839.4412,0.003491
1841.3049,0.003272
1843.1686,0.003013
1845.0322,0.002893
1846.8959,0.002892
1848.7596,0.002960
1850.6232,0.002951
1852.4869,0.003079
1854.3506,0.003334
1856.2142,0.003069
1858.0779,0.003101
1859.9416,0.003158
1861.8052,0.002988
1863.6689,0.002929
1865.5326,0.002889
1867.3963,0.002735
1869.2599,0.002682
1871.1236,0.003043
1872.9873,0.003427
1874.8509,0.003328
1876.7146,0.003213
1878.5783,0.002826
1880.4419,0.002890
1882.3056,0.003251
1884.1693,0.003123
1886.0329,0.003070
1887.8966,0.003392
1889.7603,0.003415
1891.6240,0.003279
1893.4876,0.003057
1895.3513,0.002843
1897.2150,0.002720
1899.0786,0.002717
1900.9423,0.002880
1902.8060,0.003163
1904.6696,0.003447
1906.5333,0.003570
1908.3970,0.003674
1910.2606,0.003749
1912.1243,0.003297
1913.9880,0.003496
1915.8516,0.003797
1917.7153,0.003259
1919.5790,0.002887
1921.4427,0.003171
1923.3063,0.003967
1925.1700,0.004331
1927.0337,0.003940
1928.8973,0.003636
1930.7610,0.003080
1932.6247,0.002912
1934.4883,0.002979
1936.3520,0.002789
1938.2157,0.002691
1940.0793,0.002856
1941.9430,0.003160
1943.8067,0.003551
1945.6704,0.003238
1947.5340,0.003481
1949.3977,0.004362
1951.2614,0.003736
1953.1250,0.003191
1954.9887,0.003708
1956.8524,0.003531
1958.7160,0.003564
1960.5797,0.004406
1962.4434,0.005291
1964.3070,0.005064
1966.1707,0.004459
1968.0344,0.004426
1969.8980,0.004433
1971.7617,0.004266
1973.6254,0.004410
1975.4891,0.005573
1977.3527,0.007466
1979.2164,0.007748
1981.0801,0.007601
1982.9437,0.007677
1984.8074,0.006322
1986.6711,0.006069
1988.5347,0.007584
1990.3984,0.007551
1992.2621,0.006658
1994.1257,0.006632
1995.9894,0.006355
1997.8531,0.005632
1999.7167,0.005164
2001.5804,0.004877
2003.4441,0.005064
2005.3078,0.005395
2007.1714,0.005557
2009.0351,0.006240
2010.8988,0.007695
2012.7624,0.008198
2014.6261,0.006951
2016.4898,0.006287
2018.3534,0.007376
2020.2171,0.007681
2022.0808,0.007517
2023.9444,0.008515
2025.8081,0.009038
2027.6718,0.008852
2029.5355,0.009228
2031.3991,0.010260
2033.2628,0.010867
2035.1265,0.011323
2036.9901,0.011634
2038.8538,0.011888
2040.7175,0.012298
2042.5811,0.012598
2044.4448,0.014104
2046.3085,0.014947
2048.1721,0.014341
2050.0358,0.014677
2051.8995,0.015153
2053.7631,0.015262
2055.6268,0.015069
2057.4905,0.014347
2059.3542,0.014296
2061.2178,0.014755
2063.0815,0.014454
2064.9452,0.014201
2066.8088,0.014468
2068.6725,0.014365
2070.5362,0.013989
2072.3998,0.013532
2074.2635,0.012879
2076.1272,0.012505
2077.9908,0.012594
2079.8545,0.012484
2081.7182,0.011714
2083.5819,0.010942
2085.4455,0.010619
2087.3092,0.009948
2089.1729,0.009382
2091.0365,0.009476
2092.9002,0.009250
2094.7639,0.009231
2096.6275,0.009341
2098.4912,0.009372
2100.3549,0.010023
2102.2185,0.010476
2104.0822,0.010453
2105.9459,0.010586
2107.8095,0.010241
2109.6732,0.010281
2111.5369,0.010625
2113.4006,0.010171
2115.2642,0.009187
2117.1279,0.009319
2118.9916,0.010114
2120.8552,0.009765
2122.7189,0.009311
2124.5826,0.009355
2126.4462,0.008640
2128.3099,0.007659
2130.1736,0.007672
2132.0372,0.007997
2133.9009,0.007986
2135.7646,0.008015
2137.6282,0.008104
2139.4919,0.008955
2141.3556,0.009631
2143.2193,0.009128
2145.0829,0.009185
2146.9466,0.009612
2148.8103,0.009016
2150.6739,0.008496
2152.5376,0.009175
2154.4013,0.010936
2156.2649,0.011190
2158.1286,0.011159
2159.9923,0.013369
2161.8559,0.015954
2163.7196,0.015757
2165.5833,0.014444
2167.4470,0.013492
2169.3106,0.011975
2171.1743,0.011449
2173.0380,0.011766
2174.9016,0.011658
2176.7653,0.012815
2178.6290,0.013629
2180.4926,0.013295
2182.3563,0.012772
2184.2200,0.012919
2186.0836,0.013583
2187.9473,0.012641
2189.8110,0.012281
2191.6746,0.012753
2193.5383,0.012235
2195.4020,0.012007
2197.2657,0.011702
2199.1293,0.011747
2200.9930,0.012042
2202.8567,0.011674
2204.7203,0.010928
2206.5840,0.011014
2208.4477,0.011708
2210.3113,0.011762
2212.1750,0.011182
2214.0387,0.010826
2215.9023,0.010984
2217.7660,0.012088
2219.6297,0.012674
2221.4934,0.012205
2223.3570,0.012142
2225.2207,0.012723
2227.0844,0.012377
2228.9480,0.011330
2230.8117,0.010694
2232.6754,0.010751
2234.5390,0.011072
2236.4027,0.011494
2238.2664,0.011862
2240.1300,0.011691
2241.9937,0.011480
2243.8574,0.011652
2245.7210,0.011590
2247.5847,0.011256
2249.4484,0.011211
2251.3121,0.011177
2253.1757,0.010776
2255.0394,0.011227
2256.9031,0.012040
2258.7667,0.011850
2260.6304,0.011157
2262.4941,0.010976
2264.3577,0.011373
2266.2214,0.011610
2268.0851,0.011479
2269.9487,0.011469
2271.8124,0.011865
2273.6761,0.012624
2275.5397,0.013002
2277.4034,0.012836
2279.2671,0.012341
2281.1308,0.012187
2282.9944,0.012207
2284.8581,0.012378
2286.7218,0.012521
2288.5854,0.012228
2290.4491,0.012255
2292.3128,0.012425
2294.1764,0.011946
2296.0401,0.011837
2297.9038,0.011924
2299.7674,0.011583
2301.6311,0.011493
2303.4948,0.011583
2305.3585,0.011418
2307.2221,0.011569
2309.0858,0.011756
2310.9495,0.011809
2312.8131,0.012084
2314.6768,0.012553
2316.5405,0.012481
2318.4041,0.012196
2320.2678,0.012602
2322.1315,0.013293
2323.9951,0.013465
2325.8588,0.012671
2327.7225,0.011813
2329.5861,0.011706
2331.4498,0.011604
2333.3135,0.011753
2335.1772,0.012370
2337.0408,0.012987
2338.9045,0.013336
2340.7682,0.013689
2342.6318,0.013698
2344.4955,0.013415
2346.3592,0.012677
2348.2228,0.011374
2350.0865,0.010312
2351.9502,0.010251
2353.8138,0.011127
2355.6775,0.012110
2357.5412,0.012522
2359.4049,0.013053
2361.2685,0.013798
2363.1322,0.014275
2364.9959,0.014654
2366.8595,0.015267
2368.7232,0.015012
2370.5869,0.014955
2372.4505,0.015235
2374.3142,0.015219
2376.1779,0.014939
2378.0415,0.014450
2379.9052,0.013888
2381.7689,0.013284
2383.6325,0.012503
2385.4962,0.012267
2387.3599,0.012430
2389.2236,0.012375
2391.0872,0.012271
2392.9509,0.012410
2394.8146,0.012628
2396.6782,0.012861
2398.5419,0.012914
2400.4056,0.013123
2402.2692,0.013362
2404.1329,0.013195
2405.9966,0.013197
2407.8602,0.013552
2409.7239,0.013634
2411.5876,0.013743
2413.4512,0.013720
2415.3149,0.013448
2417.1786,0.013628
2419.0423,0.014044
2420.9059,0.013848
2422.7696,0.013803
2424.6333,0.014286
2426.4969,0.014279
2428.3606,0.014346
2430.2243,0.014377
2432.0879,0.014588
2433.9516,0.014978
2435.8153,0.014799
2437.6789,0.014806
2439.5426,0.015152
2441.4063,0.015189
2443.2700,0.015124
2445.1336,0.015193
2446.9973,0.015295
2448.8610,0.015628
2450.7246,0.015625
2452.5883,0.015823
2454.4520,0.016055
2456.3156,0.015783
2458.1793,0.015720
2460.0430,0.015853
2461.9066,0.015904
2463.7703,0.015705
2465.6340,0.015675
2467.4976,0.016025
2469.3613,0.016398
2471.2250,0.016262
2473.0887,0.016172
2474.9523,0.016405
2476.8160,0.016383
2478.6797,0.016417
2480.5433,0.016577
2482.4070,0.016722
2484.2707,0.017077
2486.1343,0.017531
2487.9980,0.017414
2489.8617,0.017083
2491.7253,0.017295
2493.5890,0.017502
2495.4527,0.017511
2497.3164,0.017403
2499.1800,0.017314
2501.0437,0.017332
2502.9074,0.017705
2504.7710,0.018031
2506.6347,0.018176
2508.4984,0.018375
2510.3620,0.018335
2512.2257,0.018628
2514.0894,0.018611
2515.9530,0.018479
2517.8167,0.018918
2519.6804,0.019059
2521.5440,0.018939
2523.4077,0.018826
2525.2714,0.018970
2527.1351,0.019355
2528.9987,0.019474
2530.8624,0.019587
2532.7261,0.019862
2534.5897,0.019602
2536.4534,0.019385
2538.3171,0.019531
2540.1807,0.019997
2542.0444,0.020468
2543.9081,0.020194
2545.7717,0.019967
2547.6354,0.020022
2549.4991,0.020274
2551.3627,0.020435
2553.2264,0.020777
2555.0901,0.021119
2556.9538,0.021139
2558.8174,0.021093
2560.6811,0.021493
2562.5448,0.021552
2564.4084,0.021508
2566.2721,0.022090
2568.1358,0.022414
2569.9994,0.022299
2571.8631,0.022406
2573.7268,0.022664
2575.5904,0.022846
2577.4541,0.022914
2579.3178,0.023205
2581.1815,0.023374
2583.0451,0.023291
2584.9088,0.023138
2586.7725,0.023398
2588.6361,0.023823
2590.4998,0.024261
2592.3635,0.024503
2594.2271,0.024658
2596.0908,0.025117
2597.9545,0.025329
2599.8181,0.025307
2601.6818,0.025604
2603.5455,0.025656
2605.4091,0.025654
2607.2728,0.025975
2609.1365,0.026395
2611.0002,0.026422
2612.8638,0.026628
2614.7275,0.027061
2616.5912,0.027372
2618.4548,0.027692
2620.3185,0.028036
2622.1822,0.028319
2624.0458,0.028576
2625.9095,0.028707
2627.7732,0.028699
2629.6368,0.028951
2631.5005,0.029459
2633.3642,0.029804
2635.2279,0.029916
2637.0915,0.029988
2638.9552,0.030159
2640.8189,0.030375
2642.6825,0.030647
2644.5462,0.030804
2646.4099,0.031028
2648.2735,0.031214
2650.1372,0.031354
2652.0009,0.031767
2653.8645,0.032056
2655.7282,0.032002
2657.5919,0.032014
2659.4555,0.032072
2661.3192,0.032180
2663.1829,0.032216
2665.0466,0.032192
2666.9102,0.032290
2668.7739,0.032453
2670.6376,0.032705
2672.5012,0.032931
2674.3649,0.033114
2676.2286,0.033299
2678.0922,0.033429
2679.9559,0.033651
2681.8196,0.034024
2683.6832,0.034361
2685.5469,0.034529
2687.4106,0.034698
2689.2742,0.034907
2691.1379,0.034884
2693.0016,0.035035
2694.8653,0.035216
2696.7289,0.035237
2698.5926,0.035486
2700.4563,0.035775
2702.3199,0.036041
2704.1836,0.036156
2706.0473,0.036511
2707.9109,0.036973
2709.7746,0.037305
2711.6383,0.037615
2713.5019,0.037793
2715.3656,0.038150
2717.2293,0.038419
2719.0930,0.038731
2720.9566,0.039119
2722.8203,0.039398
2724.6840,0.039669
2726.5476,0.040024
2728.4113,0.040314
2730.2750,0.040625
2732.1386,0.040838
2734.0023,0.041106
2735.8660,0.041512
2737.7296,0.041907
2739.5933,0.042222
2741.4570,0.042541
2743.3206,0.043137
2745.1843,0.043515
2747.0480,0.043572
2748.9117,0.043866
2750.7753,0.044235
2752.6390,0.044492
2754.5027,0.044772
2756.3663,0.045014
2758.2300,0.045567
2760.0937,0.046077
2761.9573,0.046324
2763.8210,0.046644
2765.6847,0.047217
2767.5483,0.047766
2769.4120,0.048242
2771.2757,0.048607
2773.1394,0.049039
2775.0030,0.049414
2776.8667,0.049761
2778.7304,0.050232
2780.5940,0.050874
2782.4577,0.051340
2784.3214,0.051846
2786.1850,0.052486
2788.0487,0.053010
2789.9124,0.053388
2791.7760,0.053925
2793.6397,0.054550
2795.5034,0.055419
2797.3670,0.056208
2799.2307,0.056752
2801.0944,0.057194
2802.9581,0.057929
2804.8217,0.058757
2806.6854,0.059539
2808.5491,0.060394
2810.4127,0.061286
2812.2764,0.062065
2814.1401,0.063054
2816.0037,0.064091
2817.8674,0.065357
2819.7311,0.066783
2821.5947,0.068101
2823.4584,0.069449
2825.3221,0.071136
2827.1857,0.072984
2829.0494,0.075236
2830.9131,0.077896
2832.7768,0.080654
2834.6404,0.083758
2836.5041,0.088019
2838.3678,0.093126
2840.2314,0.099407
2842.0951,0.107249
2843.9588,0.117331
2845.8224,0.128929
2847.6861,0.140536
2849.5498,0.150541
2851.4134,0.157635
2853.2771,0.159398
2855.1408,0.155802
2857.0045,0.148708
2858.8681,0.140148
2860.7318,0.131514
2862.5955,0.124641
2864.4591,0.119794
2866.3228,0.117080
2868.1865,0.115739
2870.0501,0.115170
2871.9138,0.114391
2873.7775,0.113112
2875.6411,0.111432
2877.5048,0.109983
2879.3685,0.109292
2881.2321,0.109673
2883.0958,0.110562
2884.9595,0.112295
2886.8232,0.114586
2888.6868,0.117456
2890.5505,0.120490
2892.4142,0.123750
2894.2778,0.126937
2896.1415,0.130566
2898.0052,0.134356
2899.8688,0.138638
2901.7325,0.143320
2903.5962,0.148401
2905.4598,0.153720
2907.3235,0.160076
2909.1872,0.167129
2911.0509,0.175220
2912.9145,0.183774
2914.7782,0.193152
2916.6419,0.202475
2918.5055,0.210831
2920.3692,0.216473
2922.2329,0.219698
2924.0965,0.218773
2925.9602,0.214350
2927.8239,0.207486
2929.6875,0.199410
2931.5512,0.190225
2933.4149,0.180879
2935.2785,0.171223
2937.1422,0.161982
2939.0059,0.153517
2940.8696,0.146591
2942.7332,0.140804
2944.5969,0.136290
2946.4606,0.133019
2948.3242,0.131011
2950.1879,0.130083
2952.0516,0.130280
2953.9152,0.130006
2955.7789,0.129104
2957.6426,0.127612
2959.5062,0.125000
2961.3699,0.121194
2963.2336,0.117140
2965.0972,0.112753
2966.9609,0.108638
2968.8246,0.104637
2970.6883,0.101093
2972.5519,0.097812
2974.4156,0.094553
2976.2793,0.091753
2978.1429,0.089789
2980.0066,0.087856
2981.8703,0.085864
2983.7339,0.084268
2985.5976,0.083313
2987.4613,0.082376
2989.3249,0.081582
2991.1886,0.080973
2993.0523,0.080859
2994.9160,0.080989
2996.7796,0.081507
2998.6433,0.082250
3000.5070,0.083169
3002.3706,0.084294
3004.2343,0.085542
3006.0980,0.086437
3007.9616,0.086950
3009.8253,0.087142
3011.6890,0.086954
3013.5526,0.085721
3015.4163,0.084396
3017.2800,0.083624
3019.1436,0.082862
3021.0073,0.082316
3022.8710,0.082069
3024.7347,0.082172
3026.5983,0.082451
3028.4620,0.082791
3030.3257,0.083624
3032.1893,0.084230
3034.0530,0.084670
3035.9167,0.084795
3037.7803,0.085227
3039.6440,0.086121
3041.5077,0.087106
3043.3713,0.087470
3045.2350,0.087603
3047.0987,0.088032
3048.9624,0.088923
3050.8260,0.089728
3052.6897,0.090390
3054.5534,0.091006
3056.4170,0.091795
3058.2807,0.092519
3060.1444,0.093031
3062.0080,0.093358
3063.8717,0.093641
3065.7354,0.094003
3067.5990,0.094247
3069.4627,0.094167
3071.3264,0.094607
3073.1900,0.095027
3075.0537,0.095151
3076.9174,0.095098
3078.7811,0.095292
3080.6447,0.095309
3082.5084,0.095285
3084.3721,0.094991
3086.2357,0.094754
3088.0994,0.094815
3089.9631,0.094868
3091.8267,0.094531
3093.6904,0.094339
3095.5541,0.094247
3097.4177,0.094453
3099.2814,0.094548
3101.1451,0.094441
3103.0087,0.094339
3104.8724,0.094695
3106.7361,0.094782
3108.5998,0.095053
3110.4634,0.095654
3112.3271,0.095961
3114.1908,0.095987
3116.0544,0.096433
3117.9181,0.096726
3119.7818,0.097064
3121.6454,0.097318
3123.5091,0.097614
3125.3728,0.098044
3127.2364,0.098869
3129.1001,0.099688
3130.9638,0.100644
3132.8275,0.101391
3134.6911,0.101882
3136.5548,0.102250
3138.4185,0.102697
3140.2821,0.103354
3142.1458,0.104201
3144.0095,0.105102
3145.8731,0.106383
3147.7368,0.107173
3149.6005,0.107784
3151.4641,0.108568
3153.3278,0.109263
3155.1915,0.109947
3157.0551,0.111117
3158.9188,0.112115
3160.7825,0.113156
3162.6462,0.113728
3164.5098,0.114243
3166.3735,0.115420
3168.2372,0.116594
3170.1008,0.117388
3171.9645,0.118400
3173.8282,0.119198
3175.6918,0.119973
3177.5555,0.120919
3179.4192,0.121951
3181.2828,0.122519
3183.1465,0.123364
3185.0102,0.124005
3186.8739,0.124629
3188.7375,0.125396
3190.6012,0.126046
3192.4649,0.126628
3194.3285,0.127868
3196.1922,0.128815
3198.0559,0.129381
3199.9195,0.129503
3201.7832,0.129487
3203.6469,0.129911
3205.5105,0.130892
3207.3742,0.131183
3209.2379,0.131128
3211.1015,0.131297
3212.9652,0.131951
3214.8289,0.132693
3216.6926,0.133283
3218.5562,0.133591
3220.4199,0.133994
3222.2836,0.134560
3224.1472,0.135472
3226.0109,0.135766
3227.8746,0.135911
3229.7382,0.136237
3231.6019,0.136779
3233.4656,0.137085
3235.3292,0.137353
3237.1929,0.137547
3239.0566,0.138216
3240.9202,0.139215
3242.7839,0.140046
3244.6476,0.140477
3246.5113,0.140927
3248.3749,0.141260
3250.2386,0.141873
3252.1023,0.142535
3253.9659,0.143315
3255.8296,0.143717
3257.6933,0.143805
3259.5569,0.144231
3261.4206,0.145050
3263.2843,0.145175
3265.1479,0.145326
3267.0116,0.146018
3268.8753,0.146381
3270.7390,0.146072
3272.6026,0.145629
3274.4663,0.145385
3276.3300,0.145519
3278.1936,0.145060
3280.0573,0.144235
3281.9210,0.143928
3283.7846,0.144360
3285.6483,0.144104
3287.5120,0.143233
3289.3756,0.142423
3291.2393,0.141579
3293.1030,0.140408
3294.9666,0.139360
3296.8303,0.138363
3298.6940,0.137606
3300.5577,0.136316
3302.4213,0.135088
3304.2850,0.134831
3306.1487,0.134598
3308.0123,0.133256
3309.8760,0.131555
3311.7397,0.130094
3313.6033,0.129479
3315.4670,0.129211
3317.3307,0.128547
3319.1943,0.127797
3321.0580,0.126952
3322.9217,0.125595
3324.7854,0.124454
3326.6490,0.123640
3328.5127,0.123061
3330.3764,0.122479
3332.2400,0.121953
3334.1037,0.121489
3335.9674,0.121257
3337.8310,0.120755
3339.6947,0.119490
3341.5584,0.118582
3343.4220,0.118199
3345.2857,0.117178
3347.1494,0.116165
3349.0130,0.116180
3350.8767,0.115910
3352.7404,0.114626
3354.6041,0.113743
3356.4677,0.113253
3358.3314,0.112877
3360.1951,0.112761
3362.0587,0.112210
3363.9224,0.111216
3365.7861,0.110751
3367.6497,0.110419
3369.5134,0.109475
3371.3771,0.108547
3373.2407,0.108461
3375.1044,0.108127
3376.9681,0.107052
3378.8317,0.106607
3380.6954,0.106671
3382.5591,0.106232
3384.4228,0.105453
3386.2864,0.104412
3388.1501,0.103441
3390.0138,0.102945
3391.8774,0.102385
3393.7411,0.102224
3395.6048,0.102334
3397.4684,0.101521
3399.3321,0.101059
3401.1958,0.100716
3403.0594,0.099772
3404.9231,0.099314
3406.7868,0.098588
3408.6505,0.097572
3410.5141,0.096990
3412.3778,0.096516
3414.2415,0.096019
3416.1051,0.095457
3417.9688,0.094486
3419.8325,0.093554
3421.6961,0.093463
3423.5598,0.093431
3425.4235,0.092582
3427.2871,0.091479
3429.1508,0.090628
3431.0145,0.090227
3432.8781,0.089403
3434.7418,0.088256
3436.6055,0.087274
3438.4692,0.086543
3440.3328,0.086128
3442.1965,0.085805
3444.0602,0.085286
3445.9238,0.084626
3447.7875,0.084195
3449.6512,0.083609
3451.5148,0.082298
3453.3785,0.081615
3455.2422,0.081159
3457.1058,0.080008
3458.9695,0.079083
3460.8332,0.078723
3462.6969,0.078063
3464.5605,0.077143
3466.4242,0.076286
3468.2879,0.075663
3470.1515,0.075098
3472.0152,0.074413
3473.8789,0.073901
3475.7425,0.073363
3477.6062,0.071678
3479.4699,0.070445
3481.3335,0.070075
3483.1972,0.069811
3485.0609,0.069084
3486.9245,0.067720
3488.7882,0.066513
3490.6519,0.065835
3492.5156,0.065014
3494.3792,0.064276
3496.2429,0.063974
3498.1066,0.063349
3499.9702,0.062468
3501.8339,0.061861
3503.6976,0.061181
3505.5612,0.060658
3507.4249,0.059958
3509.2886,0.059410
3511.1522,0.058631
3513.0159,0.057182
3514.8796,0.056031
3516.7432,0.055185
3518.6069,0.054243
3520.4706,0.054020
3522.3343,0.053136
3524.1979,0.051725
3526.0616,0.051173
3527.9253,0.050449
3529.7889,0.049437
3531.6526,0.048550
3533.5163,0.047446
3535.3799,0.046906
3537.2436,0.046896
3539.1073,0.046081
3540.9709,0.044137
3542.8346,0.042804
3544.6983,0.041984
3546.5620,0.041602
3548.4256,0.041148
3550.2893,0.040090
3552.1530,0.039116
3554.0166,0.038468
3555.8803,0.037769
3557.7440,0.036595
3559.6076,0.035385
3561.4713,0.034578
3563.3350,0.033961
3565.1986,0.033331
3567.0623,0.032928
3568.9260,0.032592
3570.7896,0.031293
3572.6533,0.029303
3574.5170,0.028354
3576.3807,0.028447
3578.2443,0.027694
3580.1080,0.026590
3581.9717,0.025829
3583.8353,0.025041
3585.6990,0.023849
3587.5627,0.022752
3589.4263,0.022429
3591.2900,0.021761
3593.1537,0.020830
3595.0173,0.020426
3596.8810,0.019124
3598.7447,0.017860
3600.6084,0.017683
3602.4720,0.017287
3604.3357,0.016526
3606.1994,0.015670
3608.0630,0.014853
3609.9267,0.014114
3611.7904,0.013444
3613.6540,0.012562
3615.5177,0.011645
3617.3814,0.010815
3619.2450,0.010224
3621.1087,0.009678
3622.9724,0.008996
3624.8360,0.008536
3626.6997,0.007994
3628.5634,0.006597
3630.4271,0.005505
3632.2907,0.005419
3634.1544,0.005112
3636.0181,0.004470
3637.8817,0.003745
3639.7454,0.003209
3641.6091,0.002789
3643.4727,0.002395
3645.3364,0.001903
3647.2001,0.000759
3649.0637,-0.000712
3650.9274,-0.001503
3652.7911,-0.001374
3654.6547,-0.001762
3656.5184,-0.002508
3658.3821,-0.002936
3660.2458,-0.003222
3662.1094,-0.003548
3663.9731,-0.003836
3665.8368,-0.004395
3667.7004,-0.004674
3669.5641,-0.005433
3671.4278,-0.006498
3673.2914,-0.006804
3675.1551,-0.007264
3677.0188,-0.007964
3678.8824,-0.007836
3680.7461,-0.007244
3682.6098,-0.007027
3684.4735,-0.007298
3686.3371,-0.007777
3688.2008,-0.009301
3690.0645,-0.010486
3691.9281,-0.010086
3693.7918,-0.009387
3695.6555,-0.009288
3697.5191,-0.009639
3699.3828,-0.009848
3701.2465,-0.009609
3703.1101,-0.009348
3704.9738,-0.009633
3706.8375,-0.009947
3708.7011,-0.009673
3710.5648,-0.010222
3712.4285,-0.011106
3714.2922,-0.010830
3716.1558,-0.010106
3718.0195,-0.009944
3719.8832,-0.010228
3721.7468,-0.010669
3723.6105,-0.010782
3725.4742,-0.010801
3727.3378,-0.010596
3729.2015,-0.009910
3731.0652,-0.009844
3732.9288,-0.010867
3734.7925,-0.011305
3736.6562,-0.011316
3738.5199,-0.011132
3740.3835,-0.010674
3742.2472,-0.010619
3744.1109,-0.011945
3745.9745,-0.012622
3747.8382,-0.011535
3749.7019,-0.011760
3751.5655,-0.012385
3753.4292,-0.011866
3755.2929,-0.011258
3757.1565,-0.011053
3759.0202,-0.010934
3760.8839,-0.010372
3762.7475,-0.009828
3764.6112,-0.010066
3766.4749,-0.010715
3768.3386,-0.010831
3770.2022,-0.011087
3772.0659,-0.010804
3773.9296,-0.010320
3775.7932,-0.010407
3777.6569,-0.010778
3779.5206,-0.010905
3781.3842,-0.010706
3783.2479,-0.010398
3785.1116,-0.010335
3786.9752,-0.010485
3788.8389,-0.010537
3790.7026,-0.010375
3792.5662,-0.010285
3794.4299,-0.010316
3796.2936,-0.010655
3798.1573,-0.010677
3800.0209,-0.011041
3801.8846,-0.011745
3803.7483,-0.011392
3805.6119,-0.011056
3807.4756,-0.011248
3809.3393,-0.011062
3811.2029,-0.010829
3813.0666,-0.010548
3814.9303,-0.010719
3816.7939,-0.010772
3818.6576,-0.010686
3820.5213,-0.011381
3822.3850,-0.011896
3824.2486,-0.011085
3826.1123,-0.010892
3827.9760,-0.011011
3829.8396,-0.010579
3831.7033,-0.010680
3833.5670,-0.011206
3835.4306,-0.011164
3837.2943,-0.011388
3839.1580,-0.011432
3841.0216,-0.010846
3842.8853,-0.010843
3844.7490,-0.010867
3846.6126,-0.010767
3848.4763,-0.010782
3850.3400,-0.010502
3852.2037,-0.010878
3854.0673,-0.011599
3855.9310,-0.011280
3857.7947,-0.010650
3859.6583,-0.010446
3861.5220,-0.010451
3863.3857,-0.010685
3865.2493,-0.010891
3867.1130,-0.010842
3868.9767,-0.010502
3870.8403,-0.010880
3872.7040,-0.010918
3874.5677,-0.010569
3876.4314,-0.010413
3878.2950,-0.010173
3880.1587,-0.010305
3882.0224,-0.010590
3883.8860,-0.010600
3885.7497,-0.011048
3887.6134,-0.010461
3889.4770,-0.009951
3891.3407,-0.010386
3893.2044,-0.010665
3895.0680,-0.010082
3896.9317,-0.009857
3898.7954,-0.010078
3900.6590,-0.010510
3902.5227,-0.010553
3904.3864,-0.010551
3906.2501,-0.010106
3908.1137,-0.009862
3909.9774,-0.009848
3911.8411,-0.009617
3913.7047,-0.009591
3915.5684,-0.009592
3917.4321,-0.009759
3919.2957,-0.009991
3921.1594,-0.009841
3923.0231,-0.009775
3924.8867,-0.009577
3926.7504,-0.009260
3928.6141,-0.009321
3930.4777,-0.009633
3932.3414,-0.009747
3934.2051,-0.009757
3936.0688,-0.009252
3937.9324,-0.009230
3939.7961,-0.009248
3941.6598,-0.009230
3943.5234,-0.009269
3945.3871,-0.009210
3947.2508,-0.009092
3949.1144,-0.009259
3950.9781,-0.009101
3952.8418,-0.009036
3954.7054,-0.009329
3956.5691,-0.009386
3958.4328,-0.008969
3960.2965,-0.009054
3962.1601,-0.009092
3964.0238,-0.009070
3965.8875,-0.009053
3967.7511,-0.008881
3969.6148,-0.008952
3971.4785,-0.009233
3973.3421,-0.009027
3975.2058,-0.008977
3977.0695,-0.008745
3978.9331,-0.008677
3980.7968,-0.008924
3982.6605,-0.009037
3984.5241,-0.008656
3986.3878,-0.008795
3988.2515,-0.009141
3990.1152,-0.009408
3991.9788,-0.009322
3993.8425,-0.009146
3995.7062,-0.009149
3997.5698,-0.009218
3999.4335,-0.008745
