Wavenumber,Intensity
650.4205,0.269446
652.2841,0.271303
654.1478,0.271345
656.0115,0.270546
657.8751,0.268729
659.7388,0.266485
661.6025,0.263244
663.4661,0.261257
665.3298,0.260196
667.1935,0.260815
669.0571,0.260031
670.9208,0.260418
672.7845,0.260421
674.6481,0.259412
676.5118,0.258410
678.3755,0.258443
680.2392,0.255872
682.1028,0.253340
683.9665,0.250529
685.8302,0.249108
687.6938,0.248806
689.5575,0.248381
691.4212,0.247610
693.2848,0.245321
695.1485,0.243510
697.0122,0.244133
698.8758,0.243740
700.7395,0.241743
702.6032,0.238481
704.4669,0.237297
706.3305,0.236399
708.1942,0.235361
710.0579,0.234179
711.9215,0.233330
713.7852,0.231672
715.6489,0.229699
717.5125,0.227379
719.3762,0.225516
721.2399,0.224499
723.1035,0.223759
724.9672,0.221882
726.8309,0.219865
728.6945,0.218033
730.5582,0.216724
732.4219,0.215026
734.2856,0.213448
736.1492,0.212472
738.0129,0.211579
739.8766,0.209903
741.7402,0.208659
743.6039,0.207645
745.4676,0.206507
747.3312,0.204885
749.1949,0.203830
751.0586,0.202847
752.9222,0.201360
754.7859,0.199093
756.6496,0.197514
758.5132,0.196227
760.3769,0.194939
762.2406,0.194416
764.1043,0.193936
765.9679,0.192749
767.8316,0.191778
769.6953,0.189994
771.5589,0.188013
773.4226,0.185801
775.2863,0.183724
777.1499,0.182085
779.0136,0.180861
780.8773,0.179510
782.7409,0.177843
784.6046,0.175890
786.4683,0.174121
788.3320,0.172265
790.1956,0.170790
792.0593,0.169548
793.9230,0.168461
795.7866,0.166893
797.6503,0.165300
799.5140,0.163782
801.3776,0.162576
803.2413,0.161344
805.1050,0.159997
806.9686,0.159094
808.8323,0.158459
810.6960,0.157194
812.5596,0.156035
814.4233,0.155251
816.2870,0.154268
818.1507,0.152859
820.0143,0.151181
821.8780,0.149221
823.7417,0.147261
825.6053,0.145074
827.4690,0.142691
829.3327,0.140747
831.1963,0.139089
833.0600,0.137145
834.9237,0.135394
836.7873,0.133934
838.6510,0.132740
840.5147,0.131333
842.3784,0.129668
844.2420,0.128129
846.1057,0.127212
847.9694,0.126305
849.8330,0.125306
851.6967,0.124343
853.5604,0.123375
855.4240,0.122208
857.2877,0.121466
859.1514,0.120868
861.0150,0.120023
862.8787,0.119177
864.7424,0.118739
866.6060,0.118421
868.4697,0.118188
870.3334,0.117672
872.1971,0.116601
874.0607,0.115347
875.9244,0.114144
877.7881,0.112825
879.6517,0.111183
881.5154,0.109379
883.3791,0.107940
885.2427,0.106518
887.1064,0.105175
888.9701,0.104164
890.8337,0.103427
892.6974,0.102763
894.5611,0.102216
896.4247,0.101445
898.2884,0.100594
900.1521,0.099488
902.0158,0.098103
903.8794,0.096876
905.7431,0.096043
907.6068,0.095476
909.4704,0.095044
911.3341,0.094853
913.1978,0.095025
915.0614,0.095396
916.9251,0.095684
918.7888,0.095816
920.6524,0.095953
922.5161,0.096008
924.3798,0.096124
926.2435,0.096218
928.1071,0.096337
929.9708,0.096292
931.8345,0.096104
933.6981,0.095891
935.5618,0.095883
937.4255,0.096169
939.2891,0.096627
941.1528,0.097107
943.0165,0.097838
944.8801,0.098507
946.7438,0.098645
948.6075,0.098089
950.4711,0.097095
952.3348,0.095966
954.1985,0.095155
956.0622,0.094856
957.9258,0.094931
959.7895,0.095741
961.6532,0.097323
963.5168,0.099289
965.3805,0.101574
967.2442,0.103725
969.1078,0.105254
970.9715,0.105888
972.8352,0.106353
974.6988,0.107227
976.5625,0.108683
978.4262,0.110861
980.2899,0.113690
982.1535,0.116975
984.0172,0.120185
985.8809,0.122909
987.7445,0.124866
989.6082,0.126016
991.4719,0.126471
993.3355,0.126565
995.1992,0.126834
997.0629,0.127195
998.9265,0.127602
1000.7902,0.127999
1002.6539,0.128350
1004.5175,0.128954
1006.3812,0.130535
1008.2449,0.133263
1010.1086,0.136987
1011.9722,0.141596
1013.8359,0.146945
1015.6996,0.152698
1017.5632,0.158310
1019.4269,0.163442
1021.2906,0.167641
1023.1542,0.170750
1025.0179,0.173517
1026.8816,0.176427
1028.7452,0.179584
1030.6089,0.182809
1032.4726,0.185684
1034.3362,0.187793
1036.1999,0.189094
1038.0636,0.189728
1039.9273,0.189773
1041.7909,0.189616
1043.6546,0.189452
1045.5183,0.189327
1047.3819,0.189605
1049.2456,0.190369
1051.1093,0.191677
1052.9729,0.193493
1054.8366,0.195523
1056.7003,0.197796
1058.5639,0.200232
1060.4276,0.202563
1062.2913,0.204519
1064.1550,0.206264
1066.0186,0.208065
1067.8823,0.210007
1069.7460,0.211786
1071.6096,0.213234
1073.4733,0.213994
1075.3370,0.213692
1077.2006,0.212163
1079.0643,0.209228
1080.9280,0.204688
1082.7916,0.198744
1084.6553,0.191923
1086.5190,0.184873
1088.3826,0.178275
1090.2463,0.172623
1092.1100,0.167921
1093.9737,0.163996
1095.8373,0.160601
1097.7010,0.157396
1099.5647,0.154233
1101.4283,0.151390
1103.2920,0.148890
1105.1557,0.146912
1107.0193,0.145510
1108.8830,0.144594
1110.7467,0.143988
1112.6103,0.143474
1114.4740,0.142817
1116.3377,0.141771
1118.2014,0.140401
1120.0650,0.138721
1121.9287,0.136825
1123.7924,0.134972
1125.6560,0.133089
1127.5197,0.131095
1129.3834,0.128921
1131.2470,0.126632
1133.1107,0.124354
1134.9744,0.121988
1136.8380,0.119649
1138.7017,0.117490
1140.5654,0.115615
1142.4290,0.114062
1144.2927,0.112919
1146.1564,0.112193
1148.0201,0.111767
1149.8837,0.111429
1151.7474,0.111155
1153.6111,0.110792
1155.4747,0.110111
1157.3384,0.109148
1159.2021,0.108044
1161.0657,0.106702
1162.9294,0.105082
1164.7931,0.103305
1166.6567,0.101148
1168.5204,0.098324
1170.3841,0.094956
1172.2477,0.091155
1174.1114,0.087176
1175.9751,0.083346
1177.8388,0.079952
1179.7024,0.077143
1181.5661,0.075010
1183.4298,0.073620
1185.2934,0.072841
1187.1571,0.072341
1189.0208,0.072045
1190.8844,0.072123
1192.7481,0.072453
1194.6118,0.072993
1196.4754,0.073844
1198.3391,0.074891
1200.2028,0.076151
1202.0665,0.077593
1203.9301,0.079126
1205.7938,0.080546
1207.6575,0.081889
1209.5211,0.083167
1211.3848,0.084350
1213.2485,0.085446
1215.1121,0.086543
1216.9758,0.087470
1218.8395,0.088305
1220.7031,0.089080
1222.5668,0.089756
1224.4305,0.090360
1226.2941,0.090996
1228.1578,0.091574
1230.0215,0.092095
1231.8852,0.092672
1233.7488,0.093257
1235.6125,0.093714
1237.4762,0.093946
1239.3398,0.094012
1241.2035,0.093968
1243.0672,0.093721
1244.9308,0.093330
1246.7945,0.092712
1248.6582,0.091916
1250.5218,0.091137
1252.3855,0.090340
1254.2492,0.089500
1256.1129,0.088656
1257.9765,0.087951
1259.8402,0.087324
1261.7039,0.086620
1263.5675,0.086002
1265.4312,0.085551
1267.2949,0.084986
1269.1585,0.084474
1271.0222,0.084249
1272.8859,0.083927
1274.7495,0.083444
1276.6132,0.082953
1278.4769,0.082549
1280.3405,0.082323
1282.2042,0.082181
1284.0679,0.081905
1285.9316,0.081673
1287.7952,0.081628
1289.6589,0.081707
1291.5226,0.081892
1293.3862,0.082274
1295.2499,0.082772
1297.1136,0.083546
1298.9772,0.084458
1300.8409,0.085452
1302.7046,0.086645
1304.5682,0.087672
1306.4319,0.088686
1308.2956,0.089676
1310.1592,0.090669
1312.0229,0.091852
1313.8866,0.092783
1315.7503,0.093442
1317.6139,0.094214
1319.4776,0.094665
1321.3413,0.094639
1323.2049,0.094655
1325.0686,0.094651
1326.9323,0.094576
1328.7959,0.094421
1330.6596,0.094063
1332.5233,0.093379
1334.3869,0.092476
1336.2506,0.091983
1338.1143,0.092104
1339.9780,0.092375
1341.8416,0.092151
1343.7053,0.091931
1345.5690,0.092086
1347.4326,0.092297
1349.2963,0.092415
1351.1600,0.092527
1353.0236,0.092828
1354.8873,0.093139
1356.7510,0.093183
1358.6146,0.093198
1360.4783,0.093965
1362.3420,0.095503
1364.2056,0.096205
1366.0693,0.096809
1367.9330,0.098607
1369.7967,0.100619
1371.6603,0.102723
1373.5240,0.105926
1375.3877,0.108494
1377.2513,0.109692
1379.1150,0.110965
1380.9787,0.111707
1382.8423,0.112040
1384.7060,0.112692
1386.5697,0.114361
1388.4333,0.115204
1390.2970,0.114875
1392.1607,0.115473
1394.0244,0.117941
1395.8880,0.120350
1397.7517,0.122043
1399.6154,0.123987
1401.4790,0.124558
1403.3427,0.125929
1405.2064,0.127756
1407.0700,0.127877
1408.9337,0.127378
1410.7974,0.126728
1412.6610,0.124753
1414.5247,0.122275
1416.3884,0.120560
1418.2520,0.120147
1420.1157,0.117692
1421.9794,0.114053
1423.8431,0.111876
1425.7067,0.109495
1427.5704,0.107961
1429.4341,0.107833
1431.2977,0.107128
1433.1614,0.106305
1435.0251,0.107938
1436.8887,0.110988
1438.7524,0.110342
1440.6161,0.109639
1442.4797,0.109950
1444.3434,0.110120
1446.2071,0.110673
1448.0707,0.111271
1449.9344,0.110152
1451.7981,0.108503
1453.6618,0.107332
1455.5254,0.108907
1457.3891,0.111004
1459.2528,0.106998
1461.1164,0.102894
1462.9801,0.101242
1464.8438,0.100749
1466.7074,0.098210
1468.5711,0.095430
1470.4348,0.094472
1472.2984,0.095032
1474.1621,0.093160
1476.0258,0.090478
1477.8895,0.088059
1479.7531,0.086709
1481.6168,0.086235
1483.4805,0.085571
1485.3441,0.085834
1487.2078,0.088121
1489.0715,0.091377
1490.9351,0.093045
1492.7988,0.093009
1494.6625,0.095448
1496.5261,0.100818
1498.3898,0.104399
1500.2535,0.104978
1502.1171,0.104977
1503.9808,0.107393
1505.8445,0.117525
1507.7082,0.127411
1509.5718,0.127330
1511.4355,0.128930
1513.2992,0.132850
1515.1628,0.137810
1517.0265,0.142950
1518.8902,0.145635
1520.7538,0.151238
1522.6175,0.156251
1524.4812,0.158337
1526.3448,0.162297
1528.2085,0.165317
1530.0722,0.167258
1531.9359,0.171890
1533.7995,0.177871
1535.6632,0.177690
1537.5269,0.179165
1539.3905,0.190193
1541.2542,0.198588
1543.1179,0.197725
1544.9815,0.196974
1546.8452,0.195362
1548.7089,0.194962
1550.5725,0.194260
1552.4362,0.191760
1554.2999,0.188898
1556.1635,0.187077
1558.0272,0.192358
1559.8909,0.192264
1561.7546,0.181556
1563.6182,0.175274
1565.4819,0.170986
1567.3456,0.168064
1569.2092,0.166477
1571.0729,0.161879
1572.9366,0.157189
1574.8002,0.156830
1576.6639,0.157601
1578.5276,0.154063
1580.3912,0.151175
1582.2549,0.150410
1584.1186,0.150381
1585.9822,0.150728
1587.8459,0.151708
1589.7096,0.153329
1591.5733,0.155531
1593.4369,0.158672
1595.3006,0.162177
1597.1643,0.165592
1599.0279,0.169620
1600.8916,0.174707
1602.7553,0.180387
1604.6189,0.186249
1606.4826,0.192711
1608.3463,0.200193
1610.2099,0.207205
1612.0736,0.213111
1613.9373,0.219642
1615.8010,0.231045
1617.6646,0.241498
1619.5283,0.243786
1621.3920,0.248530
1623.2556,0.258182
1625.1193,0.264030
1626.9830,0.267710
1628.8466,0.271029
1630.7103,0.271198
1632.5740,0.270893
1634.4376,0.275408
1636.3013,0.279488
1638.1650,0.274055
1640.0286,0.267508
1641.8923,0.261978
1643.7560,0.257693
1645.6197,0.255959
1647.4833,0.251200
1649.3470,0.242536
1651.2107,0.239084
1653.0743,0.240143
1654.9380,0.229772
1656.8017,0.218678
1658.6653,0.209741
1660.5290,0.202489
1662.3927,0.195646
1664.2563,0.186846
1666.1200,0.178492
1667.9837,0.172250
1669.8474,0.165722
1671.7110,0.157528
1673.5747,0.150548
1675.4384,0.143821
1677.3020,0.135843
1679.1657,0.128857
1681.0294,0.122559
1682.8930,0.118362
1684.7567,0.112106
1686.6204,0.104259
1688.4840,0.098101
1690.3477,0.092134
1692.2114,0.086459
1694.0750,0.081947
1695.9387,0.077495
1697.8024,0.073292
1699.6661,0.070440
1701.5297,0.066491
1703.3934,0.063635
1705.2571,0.061541
1707.1207,0.059331
1708.9844,0.056742
1710.8481,0.054000
1712.7117,0.051420
1714.5754,0.048936
1716.4391,0.046220
1718.3027,0.042334
1720.1664,0.038331
1722.0301,0.035408
1723.8937,0.032753
1725.7574,0.030587
1727.6211,0.028721
1729.4848,0.027184
1731.3484,0.025769
1733.2121,0.024259
1735.0758,0.022295
1736.9394,0.021197
1738.8031,0.020172
1740.6668,0.019080
1742.5304,0.018329
1744.3941,0.017459
1746.2578,0.016617
1748.1214,0.016110
1749.9851,0.015639
1751.8488,0.014684
1753.7125,0.013579
1755.5761,0.013132
1757.4398,0.012792
1759.3035,0.012383
1761.1671,0.011866
1763.0308,0.011395
1764.8945,0.011108
1766.7581,0.011058
1768.6218,0.011103
1770.4855,0.011204
1772.3491,0.010494
1774.2128,0.009627
1776.0765,0.009283
1777.9401,0.008999
1779.8038,0.008659
1781.6675,0.008344
1783.5312,0.008085
1785.3948,0.007629
1787.2585,0.007243
1789.1222,0.007178
1790.9858,0.007313
1792.8495,0.007143
1794.7132,0.006704
1796.5768,0.006363
1798.4405,0.006268
1800.3042,0.006059
1802.1678,0.005554
1804.0315,0.005198
1805.8952,0.005218
1807.7589,0.005409
1809.6225,0.005183
1811.4862,0.004818
1813.3499,0.004634
1815.2135,0.004511
1817.0772,0.004293
1818.9409,0.004339
1820.8045,0.004716
1822.6682,0.004941
1824.5319,0.004733
1826.3955,0.004531
1828.2592,0.004448
1830.1229,0.004012
1831.9865,0.003575
1833.8502,0.003773
1835.7139,0.004011
1837.5776,0.003639
1839.4412,0.003410
1841.3049,0.003859
1843.1686,0.003940
1845.0322,0.003805
1846.8959,0.003757
1848.7596,0.003652
1850.6232,0.003614
1852.4869,0.003611
1854.3506,0.003324
1856.2142,0.003314
1858.0779,0.003674
1859.9416,0.003894
1861.8052,0.003576
1863.6689,0.003510
1865.5326,0.003528
1867.3963,0.003396
1869.2599,0.003327
1871.1236,0.003405
1872.9873,0.002994
1874.8509,0.002764
1876.7146,0.003029
1878.5783,0.003183
1880.4419,0.003092
1882.3056,0.003414
1884.1693,0.003310
1886.0329,0.003185
1887.8966,0.003297
1889.7603,0.003358
1891.6240,0.003427
1893.4876,0.003590
1895.3513,0.003386
1897.2150,0.003199
1899.0786,0.003260
1900.9423,0.003150
1902.8060,0.002991
1904.6696,0.003256
1906.5333,0.003768
1908.3970,0.004097
1910.2606,0.003670
1912.1243,0.003808
1913.9880,0.003933
1915.8516,0.003948
1917.7153,0.003809
1919.5790,0.003811
1921.4427,0.003970
1923.3063,0.003932
1925.1700,0.003833
1927.0337,0.004468
1928.8973,0.004688
1930.7610,0.003786
1932.6247,0.003188
1934.4883,0.003715
1936.3520,0.003826
1938.2157,0.003798
1940.0793,0.003933
1941.9430,0.004749
1943.8067,0.005028
1945.6704,0.004705
1947.5340,0.004657
1949.3977,0.004764
1951.2614,0.004689
1953.1250,0.005077
1954.9887,0.005612
1956.8524,0.005970
1958.7160,0.005255
1960.5797,0.004733
1962.4434,0.005980
1964.3070,0.007667
1966.1707,0.006561
1968.0344,0.005351
1969.8980,0.005816
1971.7617,0.006580
1973.6254,0.006636
1975.4891,0.007207
1977.3527,0.007686
1979.2164,0.008331
1981.0801,0.008130
1982.9437,0.007971
1984.8074,0.008199
1986.6711,0.008888
1988.5347,0.008469
1990.3984,0.008215
1992.2621,0.008672
1994.1257,0.008870
1995.9894,0.008440
1997.8531,0.009304
1999.7167,0.009396
2001.5804,0.008443
2003.4441,0.008036
2005.3078,0.007783
2007.1714,0.008732
2009.0351,0.009692
2010.8988,0.010364
2012.7624,0.011762
2014.6261,0.011530
2016.4898,0.010762
2018.3534,0.010351
2020.2171,0.011323
2022.0808,0.012459
2023.9444,0.011709
2025.8081,0.010842
2027.6718,0.011889
2029.5355,0.012411
2031.3991,0.012475
2033.2628,0.012260
2035.1265,0.012626
2036.9901,0.013422
2038.8538,0.015033
2040.7175,0.015594
2042.5811,0.015793
2044.4448,0.015995
2046.3085,0.017351
2048.1721,0.018717
2050.0358,0.019491
2051.8995,0.019906
2053.7631,0.020298
2055.6268,0.020678
2057.4905,0.020906
2059.3542,0.020989
2061.2178,0.021111
2063.0815,0.021588
2064.9452,0.022332
2066.8088,0.021799
2068.6725,0.021090
2070.5362,0.020446
2072.3998,0.019847
2074.2635,0.019323
2076.1272,0.018810
2077.9908,0.017691
2079.8545,0.017077
2081.7182,0.016675
2083.5819,0.015953
2085.4455,0.015121
2087.3092,0.014479
2089.1729,0.013909
2091.0365,0.014178
2092.9002,0.014130
2094.7639,0.013821
2096.6275,0.013197
2098.4912,0.012536
2100.3549,0.012631
2102.2185,0.012950
2104.0822,0.012796
2105.9459,0.012933
2107.8095,0.012719
2109.6732,0.012888
2111.5369,0.012909
2113.4006,0.013278
2115.2642,0.013015
2117.1279,0.012385
2118.9916,0.012417
2120.8552,0.012885
2122.7189,0.012192
2124.5826,0.011347
2126.4462,0.010950
2128.3099,0.011248
2130.1736,0.011505
2132.0372,0.011376
2133.9009,0.010652
2135.7646,0.010823
2137.6282,0.011639
2139.4919,0.012833
2141.3556,0.012607
2143.2193,0.011684
2145.0829,0.011381
2146.9466,0.011652
2148.8103,0.011461
2150.6739,0.010814
2152.5376,0.011016
2154.4013,0.012227
2156.2649,0.011728
2158.1286,0.012778
2159.9923,0.015611
2161.8559,0.016236
2163.7196,0.015197
2165.5833,0.014398
2167.4470,0.012977
2169.3106,0.011658
2171.1743,0.012524
2173.0380,0.014173
2174.9016,0.013161
2176.7653,0.012151
2178.6290,0.012871
2180.4926,0.013850
2182.3563,0.013059
2184.2200,0.011906
2186.0836,0.011823
2187.9473,0.012521
2189.8110,0.012616
2191.6746,0.013400
2193.5383,0.013276
2195.4020,0.012560
2197.2657,0.011280
2199.1293,0.011247
2200.9930,0.011121
2202.8567,0.010968
2204.7203,0.010435
2206.5840,0.011059
2208.4477,0.011405
2210.3113,0.011175
2212.1750,0.011182
2214.0387,0.011393
2215.9023,0.011478
2217.7660,0.011260
2219.6297,0.010737
2221.4934,0.011122
2223.3570,0.010966
2225.2207,0.010207
2227.0844,0.009927
2228.9480,0.010155
2230.8117,0.009833
2232.6754,0.009409
2234.5390,0.009392
2236.4027,0.009421
2238.2664,0.009099
2240.1300,0.009621
2241.9937,0.009126
2243.8574,0.008308
2245.7210,0.008504
2247.5847,0.008867
2249.4484,0.008413
2251.3121,0.008889
2253.1757,0.008740
2255.0394,0.008406
2256.9031,0.008183
2258.7667,0.008197
2260.6304,0.008197
2262.4941,0.007843
2264.3577,0.007574
2266.2214,0.007920
2268.0851,0.008221
2269.9487,0.008589
2271.8124,0.008531
2273.6761,0.008206
2275.5397,0.007727
2277.4034,0.007391
2279.2671,0.007857
2281.1308,0.008240
2282.9944,0.007843
2284.8581,0.007838
2286.7218,0.007681
2288.5854,0.007102
2290.4491,0.006949
2292.3128,0.007042
2294.1764,0.006882
2296.0401,0.006419
2297.9038,0.005868
2299.7674,0.005986
2301.6311,0.006078
2303.4948,0.005886
2305.3585,0.005702
2307.2221,0.005913
2309.0858,0.005651
2310.9495,0.005264
2312.8131,0.005595
2314.6768,0.006263
2316.5405,0.006317
2318.4041,0.006173
2320.2678,0.006043
2322.1315,0.006474
2323.9951,0.006573
2325.8588,0.005478
2327.7225,0.004415
2329.5861,0.004108
2331.4498,0.004066
2333.3135,0.004083
2335.1772,0.004018
2337.0408,0.004266
2338.9045,0.004531
2340.7682,0.004622
2342.6318,0.004600
2344.4955,0.004569
2346.3592,0.004128
2348.2228,0.003770
2350.0865,0.003287
2351.9502,0.003211
2353.8138,0.003663
2355.6775,0.004323
2357.5412,0.005038
2359.4049,0.005176
2361.2685,0.004445
2363.1322,0.004494
2364.9959,0.004670
2366.8595,0.004388
2368.7232,0.003585
2370.5869,0.003386
2372.4505,0.003424
2374.3142,0.003708
2376.1779,0.003546
2378.0415,0.003399
2379.9052,0.003262
2381.7689,0.003107
2383.6325,0.003026
2385.4962,0.003042
2387.3599,0.003020
2389.2236,0.003009
2391.0872,0.002978
2392.9509,0.003011
2394.8146,0.003135
2396.6782,0.003466
2398.5419,0.003399
2400.4056,0.003141
2402.2692,0.002860
2404.1329,0.003003
2405.9966,0.003191
2407.8602,0.003137
2409.7239,0.003288
2411.5876,0.003672
2413.4512,0.003600
2415.3149,0.003580
2417.1786,0.003673
2419.0423,0.003638
2420.9059,0.003621
2422.7696,0.003696
2424.6333,0.003520
2426.4969,0.003501
2428.3606,0.003650
2430.2243,0.003646
2432.0879,0.003616
2433.9516,0.003802
2435.8153,0.003790
2437.6789,0.003768
2439.5426,0.004078
2441.4063,0.004256
2443.2700,0.003918
2445.1336,0.003763
2446.9973,0.003872
2448.8610,0.004135
2450.7246,0.004198
2452.5883,0.004246
2454.4520,0.004004
2456.3156,0.003744
2458.1793,0.003755
2460.0430,0.003773
2461.9066,0.003728
2463.7703,0.003894
2465.6340,0.003666
2467.4976,0.003568
2469.3613,0.003780
2471.2250,0.004063
2473.0887,0.004078
2474.9523,0.003986
2476.8160,0.003974
2478.6797,0.004247
2480.5433,0.004168
2482.4070,0.003586
2484.2707,0.003438
2486.1343,0.004102
2487.9980,0.004494
2489.8617,0.004419
2491.7253,0.004345
2493.5890,0.004245
2495.4527,0.004026
2497.3164,0.003952
2499.1800,0.003809
2501.0437,0.003924
2502.9074,0.004358
2504.7710,0.004549
2506.6347,0.004297
2508.4984,0.004474
2510.3620,0.004568
2512.2257,0.004675
2514.0894,0.004526
2515.9530,0.004340
2517.8167,0.004481
2519.6804,0.004686
2521.5440,0.004865
2523.4077,0.004832
2525.2714,0.004613
2527.1351,0.004674
2528.9987,0.004681
2530.8624,0.004623
2532.7261,0.004542
2534.5897,0.004436
2536.4534,0.004473
2538.3171,0.004900
2540.1807,0.004939
2542.0444,0.004918
2543.9081,0.005171
2545.7717,0.005058
2547.6354,0.004910
2549.4991,0.005111
2551.3627,0.005520
2553.2264,0.005503
2555.0901,0.005029
2556.9538,0.004815
2558.8174,0.005087
2560.6811,0.005626
2562.5448,0.005596
2564.4084,0.005493
2566.2721,0.005392
2568.1358,0.005406
2569.9994,0.005852
2571.8631,0.006205
2573.7268,0.006041
2575.5904,0.006093
2577.4541,0.006195
2579.3178,0.006445
2581.1815,0.006602
2583.0451,0.006631
2584.9088,0.006405
2586.7725,0.006328
2588.6361,0.006623
2590.4998,0.006922
2592.3635,0.006911
2594.2271,0.006836
2596.0908,0.006833
2597.9545,0.007152
2599.8181,0.007450
2601.6818,0.007677
2603.5455,0.007473
2605.4091,0.007497
2607.2728,0.007881
2609.1365,0.008049
2611.0002,0.008106
2612.8638,0.008241
2614.7275,0.008403
2616.5912,0.008535
2618.4548,0.008500
2620.3185,0.008746
2622.1822,0.009248
2624.0458,0.009488
2625.9095,0.009316
2627.7732,0.009316
2629.6368,0.009420
2631.5005,0.009625
2633.3642,0.009889
2635.2279,0.010035
2637.0915,0.010042
2638.9552,0.009973
2640.8189,0.010145
2642.6825,0.010462
2644.5462,0.010666
2646.4099,0.010826
2648.2735,0.010828
2650.1372,0.010872
2652.0009,0.011124
2653.8645,0.011265
2655.7282,0.011173
2657.5919,0.011273
2659.4555,0.011605
2661.3192,0.011842
2663.1829,0.011790
2665.0466,0.011743
2666.9102,0.011795
2668.7739,0.012024
2670.6376,0.012229
2672.5012,0.012346
2674.3649,0.012482
2676.2286,0.012598
2678.0922,0.012703
2679.9559,0.012927
2681.8196,0.013160
2683.6832,0.013406
2685.5469,0.013590
2687.4106,0.013926
2689.2742,0.014220
2691.1379,0.014310
2693.0016,0.014395
2694.8653,0.014622
2696.7289,0.014866
2698.5926,0.015083
2700.4563,0.015192
2702.3199,0.015402
2704.1836,0.015629
2706.0473,0.015952
2707.9109,0.016274
2709.7746,0.016641
2711.6383,0.016989
2713.5019,0.017152
2715.3656,0.017379
2717.2293,0.017698
2719.0930,0.017734
2720.9566,0.018053
2722.8203,0.018536
2724.6840,0.018627
2726.5476,0.018739
2728.4113,0.019217
2730.2750,0.019530
2732.1386,0.019691
2734.0023,0.019964
2735.8660,0.020265
2737.7296,0.020571
2739.5933,0.020971
2741.4570,0.021338
2743.3206,0.021714
2745.1843,0.022027
2747.0480,0.022353
2748.9117,0.022404
2750.7753,0.022528
2752.6390,0.023033
2754.5027,0.023575
2756.3663,0.023858
2758.2300,0.024101
2760.0937,0.024486
2761.9573,0.024968
2763.8210,0.025363
2765.6847,0.025709
2767.5483,0.025947
2769.4120,0.026116
2771.2757,0.026381
2773.1394,0.026777
2775.0030,0.027161
2776.8667,0.027412
2778.7304,0.027557
2780.5940,0.027966
2782.4577,0.028648
2784.3214,0.029254
2786.1850,0.029624
2788.0487,0.030032
2789.9124,0.030381
2791.7760,0.030678
2793.6397,0.031032
2795.5034,0.031445
2797.3670,0.032028
2799.2307,0.032607
2801.0944,0.032896
2802.9581,0.033253
2804.8217,0.033804
2806.6854,0.034382
2808.5491,0.034872
2810.4127,0.035203
2812.2764,0.035559
2814.1401,0.036299
2816.0037,0.036931
2817.8674,0.037413
2819.7311,0.037959
2821.5947,0.038318
2823.4584,0.038623
2825.3221,0.039245
2827.1857,0.039962
2829.0494,0.040645
2830.9131,0.041319
2832.7768,0.041777
2834.6404,0.042164
2836.5041,0.042734
2838.3678,0.043397
2840.2314,0.044193
2842.0951,0.045038
2843.9588,0.045953
2845.8224,0.047046
2847.6861,0.048084
2849.5498,0.048755
2851.4134,0.049594
2853.2771,0.050563
2855.1408,0.051361
2857.0045,0.051981
2858.8681,0.052597
2860.7318,0.053352
2862.5955,0.054213
2864.4591,0.055122
2866.3228,0.056039
2868.1865,0.056924
2870.0501,0.057945
2871.9138,0.059034
2873.7775,0.059938
2875.6411,0.060555
2877.5048,0.061120
2879.3685,0.061739
2881.2321,0.062061
2883.0958,0.062194
2884.9595,0.062615
2886.8232,0.063247
2888.6868,0.063796
2890.5505,0.064205
2892.4142,0.064813
2894.2778,0.065483
2896.1415,0.065931
2898.0052,0.066407
2899.8688,0.067183
2901.7325,0.068094
2903.5962,0.068909
2905.4598,0.069579
2907.3235,0.070348
2909.1872,0.071483
2911.0509,0.072535
2912.9145,0.073366
2914.7782,0.074262
2916.6419,0.075249
2918.5055,0.076444
2920.3692,0.077597
2922.2329,0.078649
2924.0965,0.079718
2925.9602,0.080665
2927.8239,0.081523
2929.6875,0.082151
2931.5512,0.082669
2933.4149,0.083334
2935.2785,0.083886
2937.1422,0.084311
2939.0059,0.084850
2940.8696,0.085175
2942.7332,0.085374
2944.5969,0.085627
2946.4606,0.085825
2948.3242,0.086277
2950.1879,0.086942
2952.0516,0.087417
2953.9152,0.087793
2955.7789,0.088217
2957.6426,0.088882
2959.5062,0.089644
2961.3699,0.090255
2963.2336,0.090721
2965.0972,0.091094
2966.9609,0.091153
2968.8246,0.091284
2970.6883,0.091410
2972.5519,0.091332
2974.4156,0.091425
2976.2793,0.091918
2978.1429,0.092183
2980.0066,0.091857
2981.8703,0.091683
2983.7339,0.092070
2985.5976,0.092520
2987.4613,0.092809
2989.3249,0.093012
2991.1886,0.093377
2993.0523,0.093769
2994.9160,0.093897
2996.7796,0.094284
2998.6433,0.095069
3000.5070,0.095663
3002.3706,0.096368
3004.2343,0.097185
3006.0980,0.097955
3007.9616,0.098705
3009.8253,0.099657
3011.6890,0.100937
3013.5526,0.102072
3015.4163,0.102885
3017.2800,0.104123
3019.1436,0.105421
3021.0073,0.106474
3022.8710,0.107722
3024.7347,0.108990
3026.5983,0.110101
3028.4620,0.111706
3030.3257,0.113229
3032.1893,0.114568
3034.0530,0.115556
3035.9167,0.116340
3037.7803,0.117666
3039.6440,0.119325
3041.5077,0.120387
3043.3713,0.121709
3045.2350,0.123205
3047.0987,0.124626
3048.9624,0.126153
3050.8260,0.127438
3052.6897,0.128450
3054.5534,0.129860
3056.4170,0.131143
3058.2807,0.132766
3060.1444,0.134232
3062.0080,0.135242
3063.8717,0.136509
3065.7354,0.138148
3067.5990,0.139496
3069.4627,0.140707
3071.3264,0.141502
3073.1900,0.142653
3075.0537,0.144093
3076.9174,0.145341
3078.7811,0.146327
3080.6447,0.147535
3082.5084,0.148475
3084.3721,0.149491
3086.2357,0.150229
3088.0994,0.150918
3089.9631,0.151892
3091.8267,0.153238
3093.6904,0.154535
3095.5541,0.155472
3097.4177,0.156146
3099.2814,0.157385
3101.1451,0.158375
3103.0087,0.159553
3104.8724,0.160349
3106.7361,0.161194
3108.5998,0.162534
3110.4634,0.164089
3112.3271,0.165172
3114.1908,0.166467
3116.0544,0.167784
3117.9181,0.169629
3119.7818,0.170919
3121.6454,0.171896
3123.5091,0.173152
3125.3728,0.174927
3127.2364,0.176312
3129.1001,0.177386
3130.9638,0.178897
3132.8275,0.181366
3134.6911,0.183031
3136.5548,0.184610
3138.4185,0.186657
3140.2821,0.188679
3142.1458,0.190141
3144.0095,0.191631
3145.8731,0.192864
3147.7368,0.194795
3149.6005,0.196818
3151.4641,0.199038
3153.3278,0.200745
3155.1915,0.202648
3157.0551,0.204365
3158.9188,0.206316
3160.7825,0.208161
3162.6462,0.210404
3164.5098,0.211907
3166.3735,0.213578
3168.2372,0.215399
3170.1008,0.217724
3171.9645,0.219742
3173.8282,0.221919
3175.6918,0.223307
3177.5555,0.225016
3179.4192,0.226757
3181.2828,0.228336
3183.1465,0.229984
3185.0102,0.232515
3186.8739,0.234079
3188.7375,0.235600
3190.6012,0.237339
3192.4649,0.239002
3194.3285,0.240323
3196.1922,0.242160
3198.0559,0.243591
3199.9195,0.245762
3201.7832,0.247192
3203.6469,0.248655
3205.5105,0.249618
3207.3742,0.251194
3209.2379,0.253014
3211.1015,0.254387
3212.9652,0.254893
3214.8289,0.256662
3216.6926,0.257802
3218.5562,0.258889
3220.4199,0.259516
3222.2836,0.261085
3224.1472,0.262104
3226.0109,0.263544
3227.8746,0.264104
3229.7382,0.265121
3231.6019,0.265921
3233.4656,0.267548
3235.3292,0.268309
3237.1929,0.269651
3239.0566,0.270599
3240.9202,0.271939
3242.7839,0.272821
3244.6476,0.274157
3246.5113,0.274094
3248.3749,0.274927
3250.2386,0.276024
3252.1023,0.277052
3253.9659,0.277403
3255.8296,0.278391
3257.6933,0.278741
3259.5569,0.279404
3261.4206,0.279725
3263.2843,0.280600
3265.1479,0.281011
3267.0116,0.281896
3268.8753,0.282263
3270.7390,0.283053
3272.6026,0.282791
3274.4663,0.283374
3276.3300,0.283018
3278.1936,0.283508
3280.0573,0.284189
3281.9210,0.284642
3283.7846,0.283596
3285.6483,0.283263
3287.5120,0.283162
3289.3756,0.283426
3291.2393,0.282672
3293.1030,0.283533
3294.9666,0.283196
3296.8303,0.282806
3298.6940,0.282333
3300.5577,0.282891
3302.4213,0.282508
3304.2850,0.282455
3306.1487,0.281052
3308.0123,0.281468
3309.8760,0.281506
3311.7397,0.281857
3313.6033,0.281695
3315.4670,0.282411
3317.3307,0.282061
3319.1943,0.281388
3321.0580,0.280887
3322.9217,0.281815
3324.7854,0.281828
3326.6490,0.282727
3328.5127,0.282585
3330.3764,0.282983
3332.2400,0.282178
3334.1037,0.282505
3335.9674,0.282556
3337.8310,0.283127
3339.6947,0.282957
3341.5584,0.283489
3343.4220,0.283890
3345.2857,0.284335
3347.1494,0.283282
3349.0130,0.282951
3350.8767,0.282129
3352.7404,0.282875
3354.6041,0.283810
3356.4677,0.284216
3358.3314,0.282375
3360.1951,0.282455
3362.0587,0.282728
3363.9224,0.283272
3365.7861,0.282423
3367.6497,0.282316
3369.5134,0.281013
3371.3771,0.280885
3373.2407,0.279815
3375.1044,0.280108
3376.9681,0.279994
3378.8317,0.279587
3380.6954,0.278019
3382.5591,0.277899
3384.4228,0.276515
3386.2864,0.275615
3388.1501,0.274084
3390.0138,0.273650
3391.8774,0.272311
3393.7411,0.271768
3395.6048,0.270656
3397.4684,0.269347
3399.3321,0.267891
3401.1958,0.268153
3403.0594,0.267200
3404.9231,0.266694
3406.7868,0.264066
3408.6505,0.263047
3410.5141,0.262715
3412.3778,0.262454
3414.2415,0.260261
3416.1051,0.258454
3417.9688,0.256558
3419.8325,0.255085
3421.6961,0.252865
3423.5598,0.251739
3425.4235,0.248949
3427.2871,0.248099
3429.1508,0.246296
3431.0145,0.245113
3432.8781,0.243367
3434.7418,0.242021
3436.6055,0.239898
3438.4692,0.239216
3440.3328,0.237312
3442.1965,0.236171
3444.0602,0.234325
3445.9238,0.232200
3447.7875,0.230059
3449.6512,0.228695
3451.5148,0.226116
3453.3785,0.224371
3455.2422,0.221770
3457.1058,0.219982
3458.9695,0.218078
3460.8332,0.217168
3462.6969,0.215101
3464.5605,0.213952
3466.4242,0.210821
3468.2879,0.208331
3470.1515,0.206475
3472.0152,0.205804
3473.8789,0.203431
3475.7425,0.201914
3477.6062,0.199746
3479.4699,0.197763
3481.3335,0.195335
3483.1972,0.194032
3485.0609,0.191631
3486.9245,0.189273
3488.7882,0.186696
3490.6519,0.185894
3492.5156,0.183801
3494.3792,0.180350
3496.2429,0.177349
3498.1066,0.176836
3499.9702,0.174560
3501.8339,0.172394
3503.6976,0.170630
3505.5612,0.169596
3507.4249,0.167416
3509.2886,0.165118
3511.1522,0.162429
3513.0159,0.160263
3514.8796,0.158235
3516.7432,0.157012
3518.6069,0.154254
3520.4706,0.152583
3522.3343,0.149915
3524.1979,0.147951
3526.0616,0.146232
3527.9253,0.144304
3529.7889,0.141326
3531.6526,0.139323
3533.5163,0.136905
3535.3799,0.134741
3537.2436,0.132730
3539.1073,0.130931
3540.9709,0.128372
3542.8346,0.126595
3544.6983,0.124812
3546.5620,0.123828
3548.4256,0.121249
3550.2893,0.119091
3552.1530,0.116478
3554.0166,0.114895
3555.8803,0.112620
3557.7440,0.109869
3559.6076,0.107238
3561.4713,0.105676
3563.3350,0.104062
3565.1986,0.102263
3567.0623,0.100045
3568.9260,0.098302
3570.7896,0.095801
3572.6533,0.093900
3574.5170,0.092148
3576.3807,0.090456
3578.2443,0.088233
3580.1080,0.086146
3581.9717,0.083903
3583.8353,0.081750
3585.6990,0.080182
3587.5627,0.079391
3589.4263,0.077370
3591.2900,0.075183
3593.1537,0.072888
3595.0173,0.071363
3596.8810,0.069462
3598.7447,0.067669
3600.6084,0.065622
3602.4720,0.063664
3604.3357,0.061889
3606.1994,0.060567
3608.0630,0.058868
3609.9267,0.057189
3611.7904,0.055168
3613.6540,0.053763
3615.5177,0.051975
3617.3814,0.050394
3619.2450,0.048425
3621.1087,0.045960
3622.9724,0.043762
3624.8360,0.042601
3626.6997,0.041300
3628.5634,0.039223
3630.4271,0.037139
3632.2907,0.034897
3634.1544,0.033039
3636.0181,0.031969
3637.8817,0.030479
3639.7454,0.028847
3641.6091,0.027089
3643.4727,0.025232
3645.3364,0.023652
3647.2001,0.022164
3649.0637,0.019886
3650.9274,0.017824
3652.7911,0.016392
3654.6547,0.015010
3656.5184,0.013161
3658.3821,0.011568
3660.2458,0.010407
3662.1094,0.009072
3663.9731,0.007765
3665.8368,0.007048
3667.7004,0.005855
3669.5641,0.004163
3671.4278,0.003144
3673.2914,0.002066
3675.1551,0.000656
3677.0188,-0.000230
3678.8824,-0.001363
3680.7461,-0.002000
3682.6098,-0.002252
3684.4735,-0.002634
3686.3371,-0.003554
3688.2008,-0.004522
3690.0645,-0.004812
3691.9281,-0.005729
3693.7918,-0.006614
3695.6555,-0.006695
3697.5191,-0.006829
3699.3828,-0.007272
3701.2465,-0.007877
3703.1101,-0.008011
3704.9738,-0.007869
3706.8375,-0.008042
3708.7011,-0.008174
3710.5648,-0.008530
3712.4285,-0.009590
3714.2922,-0.010357
3716.1558,-0.010114
3718.0195,-0.009785
3719.8832,-0.010003
3721.7468,-0.010431
3723.6105,-0.010537
3725.4742,-0.010520
3727.3378,-0.010367
3729.2015,-0.010179
3731.0652,-0.010045
3732.9288,-0.010046
3734.7925,-0.010588
3736.6562,-0.011300
3738.5199,-0.011561
3740.3835,-0.011345
3742.2472,-0.011005
3744.1109,-0.010963
3745.9745,-0.011587
3747.8382,-0.011892
3749.7019,-0.012342
3751.5655,-0.013156
3753.4292,-0.012717
3755.2929,-0.011871
3757.1565,-0.012045
3759.0202,-0.012573
3760.8839,-0.012697
3762.7475,-0.012283
3764.6112,-0.012077
3766.4749,-0.011966
3768.3386,-0.012051
3770.2022,-0.012583
3772.0659,-0.013043
3773.9296,-0.012973
3775.7932,-0.012924
3777.6569,-0.013051
3779.5206,-0.013337
3781.3842,-0.013234
3783.2479,-0.012962
3785.1116,-0.012939
3786.9752,-0.013100
3788.8389,-0.013201
3790.7026,-0.013049
3792.5662,-0.012686
3794.4299,-0.012470
3796.2936,-0.012485
3798.1573,-0.012588
3800.0209,-0.012926
3801.8846,-0.013366
3803.7483,-0.013618
3805.6119,-0.013617
3807.4756,-0.013857
3809.3393,-0.013996
3811.2029,-0.013462
3813.0666,-0.012854
3814.9303,-0.012683
3816.7939,-0.013133
3818.6576,-0.013277
3820.5213,-0.013482
3822.3850,-0.013918
3824.2486,-0.013735
3826.1123,-0.013525
3827.9760,-0.013697
3829.8396,-0.013677
3831.7033,-0.013453
3833.5670,-0.013395
3835.4306,-0.013620
3837.2943,-0.013688
3839.1580,-0.013791
3841.0216,-0.013830
3842.8853,-0.013836
3844.7490,-0.013990
3846.6126,-0.013799
3848.4763,-0.013301
3850.3400,-0.013097
3852.2037,-0.013355
3854.0673,-0.013851
3855.9310,-0.014203
3857.7947,-0.014225
3859.6583,-0.014036
3861.5220,-0.013844
3863.3857,-0.014061
3865.2493,-0.014291
3867.1130,-0.013779
3868.9767,-0.013587
3870.8403,-0.014034
3872.7040,-0.014378
3874.5677,-0.014236
3876.4314,-0.014062
3878.2950,-0.013710
3880.1587,-0.013950
3882.0224,-0.013974
3883.8860,-0.013584
3885.7497,-0.013601
3887.6134,-0.013947
3889.4770,-0.013936
3891.3407,-0.013909
3893.2044,-0.014047
3895.0680,-0.014067
3896.9317,-0.013543
3898.7954,-0.013208
3900.6590,-0.013114
3902.5227,-0.013266
3904.3864,-0.013668
3906.2501,-0.014330
3908.1137,-0.014666
3909.9774,-0.014442
3911.8411,-0.014070
3913.7047,-0.014100
3915.5684,-0.014060
3917.4321,-0.013889
3919.2957,-0.014137
3921.1594,-0.014190
3923.0231,-0.013857
3924.8867,-0.013888
3926.7504,-0.014027
3928.6141,-0.013841
3930.4777,-0.013864
3932.3414,-0.014227
3934.2051,-0.014138
3936.0688,-0.014058
3937.9324,-0.014213
3939.7961,-0.014077
3941.6598,-0.013966
3943.5234,-0.014482
3945.3871,-0.014254
3947.2508,-0.013772
3949.1144,-0.013827
3950.9781,-0.013864
3952.8418,-0.013959
3954.7054,-0.014006
3956.5691,-0.013732
3958.4328,-0.013775
3960.2965,-0.013816
3962.1601,-0.014029
3964.0238,-0.014278
3965.8875,-0.014160
3967.7511,-0.013773
3969.6148,-0.013779
3971.4785,-0.014118
3973.3421,-0.014482
3975.2058,-0.014321
3977.0695,-0.014103
3978.9331,-0.014083
3980.7968,-0.013977
3982.6605,-0.013876
3984.5241,-0.013934
3986.3878,-0.013980
3988.2515,-0.013906
3990.1152,-0.013892
3991.9788,-0.014078
3993.8425,-0.013963
3995.7062,-0.014111
3997.5698,-0.014332
3999.4335,-0.014274
